ENLIGHTEN Version,1.6.8
Measurement ID,20190528-110227-248637-WP-00357
Serial Number,WP-00357
Label,Acetaminophen
Integration Time,7
Timestamp,2019-05-28 11:02:27.248637
Note,
Temperature,-99
CCD C0,801.1829833984375
CCD C1,0.12474799901247025
CCD C2,-2.2862799596623518e-05
CCD C3,4.907460215974879e-09
CCD Offset,0
CCD Gain,1.9
Laser Wavelength,785.0
Laser Enable,False
Laser Power,100.0
Laser Temperature,-99
Pixel Count,1952

Wavenumber,Processed
257.31,0.00
259.25,0.00
261.19,0.00
263.13,651.00
265.07,-228.00
267.01,277.00
268.95,-218.00
270.88,-718.00
272.82,347.00
274.75,593.00
276.68,655.00
278.61,343.00
280.54,89.00
282.46,-614.00
284.39,491.00
286.31,5.00
288.24,340.00
290.16,377.00
292.08,116.00
294.00,-168.00
295.92,-713.00
297.83,-366.00
299.75,137.00
301.66,-262.00
303.58,-345.00
305.49,688.00
307.40,-384.00
309.31,63.00
311.22,32.00
313.12,199.00
315.03,785.00
316.93,-30.00
318.83,443.00
320.73,-35.00
322.63,406.00
324.53,-601.00
326.43,30.00
328.33,215.00
330.22,380.00
332.12,642.00
334.01,362.00
335.90,446.00
337.79,758.00
339.68,313.00
341.57,268.00
343.45,134.00
345.34,286.00
347.22,-163.00
349.10,405.00
350.98,1085.00
352.86,685.00
354.74,1160.00
356.62,-166.00
358.50,248.00
360.37,422.00
362.24,816.00
364.12,1090.00
365.99,1489.00
367.86,1133.00
369.73,2052.00
371.59,1977.00
373.46,2320.00
375.33,1826.00
377.19,3370.00
379.05,4214.00
380.91,4478.00
382.77,4809.00
384.63,6619.00
386.49,6770.00
388.35,9263.00
390.20,8995.00
392.06,10607.00
393.91,9341.00
395.76,11171.00
397.61,9582.00
399.46,10658.00
401.31,8860.00
403.15,9670.00
405.00,8752.00
406.84,9232.00
408.69,8543.00
410.53,9068.00
412.37,8261.00
414.21,8966.00
416.05,7541.00
417.88,7167.00
419.72,6451.00
421.55,7454.00
423.39,6574.00
425.22,6399.00
427.05,6595.00
428.88,6245.00
430.71,6793.00
432.54,6176.00
434.36,6350.00
436.19,5738.00
438.01,5960.00
439.83,7156.00
441.65,5291.00
443.48,6902.00
445.29,7856.00
447.11,7338.00
448.93,7808.00
450.74,7700.00
452.56,7244.00
454.37,8338.00
456.18,7862.00
457.99,7971.00
459.80,8020.00
461.61,7559.00
463.42,8903.00
465.23,10070.00
467.03,8720.00
468.83,9364.00
470.64,8470.00
472.44,9351.00
474.24,7466.00
476.04,7585.00
477.84,7554.00
479.63,7953.00
481.43,7621.00
483.22,7396.00
485.02,7561.00
486.81,7867.00
488.60,8825.00
490.39,7899.00
492.18,7424.00
493.96,7827.00
495.75,7551.00
497.54,7912.00
499.32,8465.00
501.10,9825.00
502.88,8554.00
504.67,9063.00
506.45,8950.00
508.22,10037.00
510.00,7980.00
511.78,8269.00
513.55,7529.00
515.33,7576.00
517.10,7269.00
518.87,8506.00
520.64,6715.00
522.41,7455.00
524.18,7363.00
525.94,7778.00
527.71,7282.00
529.47,7739.00
531.24,7228.00
533.00,7839.00
534.76,7172.00
536.52,7398.00
538.28,7394.00
540.04,7116.00
541.80,6762.00
543.55,6848.00
545.31,6646.00
547.06,8070.00
548.81,7465.00
550.56,7514.00
552.31,7771.00
554.06,8299.00
555.81,7499.00
557.56,8080.00
559.30,6931.00
561.05,7914.00
562.79,7151.00
564.53,8621.00
566.28,7070.00
568.02,8595.00
569.75,8193.00
571.49,7314.00
573.23,8201.00
574.97,8190.00
576.70,7773.00
578.43,7927.00
580.17,7083.00
581.90,7636.00
583.63,7887.00
585.36,8272.00
587.09,8960.00
588.81,8231.00
590.54,8585.00
592.26,8689.00
593.99,8493.00
595.71,9346.00
597.43,9100.00
599.15,10738.00
600.87,10080.00
602.59,10080.00
604.31,10652.00
606.02,10796.00
607.74,10545.00
609.45,11064.00
611.17,10382.00
612.88,10458.00
614.59,10604.00
616.30,11076.00
618.01,10110.00
619.71,10568.00
621.42,9835.00
623.13,12162.00
624.83,11529.00
626.53,12611.00
628.24,12852.00
629.94,12646.00
631.64,11864.00
633.34,12534.00
635.04,12764.00
636.73,12507.00
638.43,12584.00
640.12,11941.00
641.82,13955.00
643.51,15179.00
645.20,15355.00
646.89,17862.00
648.58,18392.00
650.27,19883.00
651.96,17814.00
653.65,20079.00
655.33,18617.00
657.02,19335.00
658.70,17056.00
660.38,16443.00
662.06,14540.00
663.74,13252.00
665.42,14849.00
667.10,12804.00
668.78,11757.00
670.45,12791.00
672.13,10904.00
673.80,11596.00
675.48,11014.00
677.15,12933.00
678.82,11092.00
680.49,11512.00
682.16,10813.00
683.83,10964.00
685.49,11586.00
687.16,11445.00
688.82,11793.00
690.49,11008.00
692.15,10646.00
693.81,12075.00
695.47,11065.00
697.13,11227.00
698.79,11114.00
700.45,12898.00
702.11,12533.00
703.76,11758.00
705.42,11954.00
707.07,12581.00
708.72,12948.00
710.37,13411.00
712.02,13480.00
713.67,12281.00
715.32,12472.00
716.97,11798.00
718.62,11328.00
720.26,11328.00
721.91,10106.00
723.55,9587.00
725.19,10005.00
726.84,10395.00
728.48,11061.00
730.12,9409.00
731.75,10170.00
733.39,9093.00
735.03,9456.00
736.66,10165.00
738.30,9257.00
739.93,9409.00
741.57,9771.00
743.20,10630.00
744.83,9413.00
746.46,8779.00
748.09,8390.00
749.71,9304.00
751.34,8989.00
752.97,8784.00
754.59,8631.00
756.22,8614.00
757.84,8368.00
759.46,8352.00
761.08,8716.00
762.70,8666.00
764.32,7157.00
765.94,7980.00
767.56,8773.00
769.17,7994.00
770.79,8238.00
772.40,7694.00
774.01,7751.00
775.63,9174.00
777.24,9140.00
778.85,8132.00
780.46,8595.00
782.07,9353.00
783.67,10014.00
785.28,11850.00
786.88,9451.00
788.49,11721.00
790.09,13426.00
791.70,14832.00
793.30,16433.00
794.90,18004.00
796.50,21781.00
798.10,19037.00
799.69,20938.00
801.29,21278.00
802.89,19354.00
804.48,20058.00
806.08,17386.00
807.67,16930.00
809.26,14783.00
810.85,15329.00
812.44,14043.00
814.03,14118.00
815.62,13313.00
817.21,12812.00
818.79,13339.00
820.38,13018.00
821.96,12857.00
823.55,12683.00
825.13,13078.00
826.71,12802.00
828.29,13428.00
829.87,14562.00
831.45,12913.00
833.03,14462.00
834.61,13128.00
836.18,14457.00
837.76,14135.00
839.33,14753.00
840.91,14222.00
842.48,14695.00
844.05,14087.00
845.62,14530.00
847.19,14716.00
848.76,16477.00
850.33,17863.00
851.90,23643.00
853.46,24057.00
855.03,28543.00
856.59,28803.00
858.15,30467.00
859.72,31741.00
861.28,35486.00
862.84,31219.00
864.40,31223.00
865.96,28460.00
867.52,24838.00
869.07,23151.00
870.63,21778.00
872.18,18443.00
873.74,18713.00
875.29,16623.00
876.84,16055.00
878.40,13312.00
879.95,12113.00
881.50,13449.00
883.04,12629.00
884.59,9896.00
886.14,10666.00
887.69,10371.00
889.23,10596.00
890.78,10635.00
892.32,9883.00
893.86,9134.00
895.40,10177.00
896.94,9490.00
898.48,10927.00
900.02,9314.00
901.56,9090.00
903.10,9253.00
904.63,9141.00
906.17,9383.00
907.70,9968.00
909.24,9281.00
910.77,8659.00
912.30,8988.00
913.83,10787.00
915.36,10081.00
916.89,10668.00
918.42,9746.00
919.95,10240.00
921.48,10035.00
923.00,9282.00
924.53,9883.00
926.05,9218.00
927.57,9224.00
929.10,9880.00
930.62,9669.00
932.14,11387.00
933.66,10613.00
935.18,9987.00
936.70,9223.00
938.21,10490.00
939.73,9034.00
941.24,9852.00
942.76,8705.00
944.27,10045.00
945.79,10012.00
947.30,9568.00
948.81,9866.00
950.32,9630.00
951.83,9695.00
953.34,9944.00
954.84,8800.00
956.35,10341.00
957.86,10170.00
959.36,11355.00
960.87,10583.00
962.37,11691.00
963.87,11251.00
965.37,11553.00
966.88,11593.00
968.38,13546.00
969.87,11662.00
971.37,13468.00
972.87,12403.00
974.37,12524.00
975.86,14045.00
977.36,10414.00
978.85,10693.00
980.35,11068.00
981.84,11332.00
983.33,10040.00
984.82,10932.00
986.31,9641.00
987.80,9996.00
989.29,8374.00
990.77,8381.00
992.26,9348.00
993.75,8559.00
995.23,9044.00
996.72,8709.00
998.20,7760.00
999.68,9485.00
1001.16,8970.00
1002.64,9180.00
1004.12,10386.00
1005.60,8592.00
1007.08,9263.00
1008.56,9352.00
1010.04,9642.00
1011.51,9798.00
1012.99,9700.00
1014.46,8321.00
1015.93,10443.00
1017.41,8776.00
1018.88,9729.00
1020.35,9224.00
1021.82,9598.00
1023.29,9859.00
1024.76,9387.00
1026.23,9785.00
1027.69,9337.00
1029.16,9369.00
1030.62,8954.00
1032.09,8387.00
1033.55,9232.00
1035.02,7859.00
1036.48,8658.00
1037.94,8147.00
1039.40,9512.00
1040.86,8559.00
1042.32,8273.00
1043.78,7906.00
1045.23,8612.00
1046.69,8619.00
1048.15,7973.00
1049.60,8022.00
1051.05,8388.00
1052.51,7419.00
1053.96,8216.00
1055.41,7064.00
1056.86,8327.00
1058.31,7216.00
1059.76,7541.00
1061.21,6781.00
1062.66,7360.00
1064.10,7474.00
1065.55,7563.00
1067.00,8249.00
1068.44,7370.00
1069.88,7613.00
1071.33,7337.00
1072.77,6598.00
1074.21,7438.00
1075.65,7034.00
1077.09,7583.00
1078.53,8201.00
1079.97,7550.00
1081.41,7326.00
1082.84,8380.00
1084.28,7143.00
1085.71,7120.00
1087.15,8082.00
1088.58,8413.00
1090.02,7588.00
1091.45,8145.00
1092.88,6224.00
1094.31,7791.00
1095.74,8073.00
1097.17,8711.00
1098.60,8801.00
1100.02,9088.00
1101.45,9757.00
1102.88,9223.00
1104.30,9250.00
1105.73,10234.00
1107.15,9516.00
1108.57,9555.00
1109.99,8816.00
1111.42,10938.00
1112.84,8544.00
1114.26,9276.00
1115.68,9115.00
1117.09,9015.00
1118.51,10148.00
1119.93,10127.00
1121.34,8820.00
1122.76,9425.00
1124.17,8552.00
1125.59,9130.00
1127.00,8903.00
1128.41,9496.00
1129.82,8448.00
1131.24,8584.00
1132.65,8526.00
1134.05,8931.00
1135.46,8455.00
1136.87,9768.00
1138.28,7915.00
1139.68,9579.00
1141.09,8164.00
1142.50,8246.00
1143.90,7940.00
1145.30,8762.00
1146.71,9204.00
1148.11,9091.00
1149.51,8579.00
1150.91,9330.00
1152.31,7534.00
1153.71,9209.00
1155.11,10166.00
1156.50,10649.00
1157.90,11294.00
1159.30,10865.00
1160.69,12986.00
1162.08,14696.00
1163.48,14193.00
1164.87,13359.00
1166.26,15690.00
1167.66,15523.00
1169.05,13493.00
1170.44,16293.00
1171.83,14443.00
1173.21,16597.00
1174.60,15638.00
1175.99,17376.00
1177.38,17032.00
1178.76,16204.00
1180.15,15497.00
1181.53,15652.00
1182.92,14057.00
1184.30,13568.00
1185.68,11990.00
1187.06,14031.00
1188.44,11666.00
1189.82,11884.00
1191.20,11004.00
1192.58,12354.00
1193.96,10872.00
1195.34,11151.00
1196.71,10583.00
1198.09,9173.00
1199.46,11002.00
1200.84,10976.00
1202.21,11010.00
1203.58,10662.00
1204.96,9950.00
1206.33,10760.00
1207.70,12015.00
1209.07,11586.00
1210.44,11858.00
1211.81,12076.00
1213.17,13278.00
1214.54,12717.00
1215.91,12592.00
1217.27,14477.00
1218.64,14119.00
1220.00,16507.00
1221.37,14538.00
1222.73,15085.00
1224.09,17269.00
1225.45,18717.00
1226.82,19403.00
1228.18,20434.00
1229.54,21972.00
1230.89,22563.00
1232.25,22997.00
1233.61,23155.00
1234.97,24339.00
1236.32,25990.00
1237.68,26321.00
1239.03,24773.00
1240.39,25775.00
1241.74,24275.00
1243.09,25500.00
1244.45,25453.00
1245.80,25224.00
1247.15,25135.00
1248.50,26141.00
1249.85,23984.00
1251.20,23572.00
1252.54,22355.00
1253.89,21503.00
1255.24,21154.00
1256.58,20593.00
1257.93,18631.00
1259.27,18268.00
1260.62,17717.00
1261.96,17561.00
1263.30,16482.00
1264.64,17909.00
1265.98,17024.00
1267.33,16456.00
1268.67,17340.00
1270.00,18206.00
1271.34,16343.00
1272.68,16985.00
1274.02,15975.00
1275.35,16505.00
1276.69,17412.00
1278.03,17173.00
1279.36,16838.00
1280.69,16440.00
1282.03,15503.00
1283.36,15564.00
1284.69,16075.00
1286.02,15118.00
1287.35,15156.00
1288.68,15481.00
1290.01,14895.00
1291.34,15509.00
1292.67,15065.00
1294.00,14291.00
1295.32,12275.00
1296.65,12843.00
1297.97,12088.00
1299.30,12444.00
1300.62,12487.00
1301.94,11798.00
1303.27,12904.00
1304.59,11602.00
1305.91,11513.00
1307.23,12406.00
1308.55,13466.00
1309.87,12699.00
1311.19,15282.00
1312.51,15855.00
1313.82,16612.00
1315.14,16190.00
1316.46,18199.00
1317.77,19912.00
1319.09,19916.00
1320.40,22358.00
1321.72,21744.00
1323.03,20338.00
1324.34,22402.00
1325.65,23793.00
1326.96,24338.00
1328.27,23187.00
1329.58,23747.00
1330.89,22508.00
1332.20,23655.00
1333.51,24317.00
1334.82,22150.00
1336.12,22119.00
1337.43,21515.00
1338.73,20510.00
1340.04,19138.00
1341.34,20784.00
1342.65,19387.00
1343.95,19715.00
1345.25,16670.00
1346.55,16824.00
1347.85,15568.00
1349.15,15679.00
1350.45,15698.00
1351.75,14903.00
1353.05,14639.00
1354.35,15142.00
1355.65,13677.00
1356.94,14161.00
1358.24,13935.00
1359.53,13992.00
1360.83,13933.00
1362.12,15504.00
1363.42,14385.00
1364.71,15732.00
1366.00,16130.00
1367.29,15669.00
1368.58,16088.00
1369.87,16556.00
1371.16,16800.00
1372.45,17200.00
1373.74,16581.00
1375.03,17016.00
1376.32,16151.00
1377.60,17235.00
1378.89,17317.00
1380.17,16430.00
1381.46,15907.00
1382.74,15163.00
1384.03,15650.00
1385.31,16244.00
1386.59,15381.00
1387.87,15126.00
1389.15,14275.00
1390.43,12603.00
1391.71,13621.00
1392.99,13428.00
1394.27,13502.00
1395.55,11744.00
1396.83,12706.00
1398.11,11892.00
1399.38,11740.00
1400.66,11531.00
1401.93,10448.00
1403.21,11460.00
1404.48,11810.00
1405.75,11349.00
1407.03,11165.00
1408.30,11062.00
1409.57,11808.00
1410.84,10301.00
1412.11,10343.00
1413.38,10483.00
1414.65,11574.00
1415.92,10196.00
1417.19,11054.00
1418.46,10283.00
1419.72,11302.00
1420.99,10349.00
1422.25,12286.00
1423.52,11788.00
1424.78,11398.00
1426.05,9487.00
1427.31,11989.00
1428.57,11731.00
1429.84,11157.00
1431.10,12370.00
1432.36,11245.00
1433.62,11190.00
1434.88,12475.00
1436.14,10661.00
1437.40,11854.00
1438.65,11745.00
1439.91,11672.00
1441.17,11937.00
1442.43,13055.00
1443.68,11977.00
1444.94,11505.00
1446.19,12308.00
1447.44,12574.00
1448.70,13166.00
1449.95,11644.00
1451.20,12438.00
1452.46,12630.00
1453.71,11734.00
1454.96,12088.00
1456.21,10142.00
1457.46,12120.00
1458.71,11808.00
1459.95,12703.00
1461.20,10915.00
1462.45,12197.00
1463.70,12017.00
1464.94,11977.00
1466.19,12019.00
1467.43,12229.00
1468.68,12311.00
1469.92,11185.00
1471.16,11089.00
1472.41,11688.00
1473.65,11099.00
1474.89,11311.00
1476.13,9575.00
1477.37,10677.00
1478.61,10919.00
1479.85,10501.00
1481.09,10038.00
1482.33,11595.00
1483.57,10683.00
1484.80,9911.00
1486.04,11926.00
1487.28,10129.00
1488.51,10629.00
1489.75,10808.00
1490.98,10569.00
1492.21,11753.00
1493.45,10147.00
1494.68,11300.00
1495.91,10383.00
1497.14,10183.00
1498.37,10622.00
1499.61,10927.00
1500.84,12046.00
1502.06,11117.00
1503.29,10887.00
1504.52,11492.00
1505.75,11017.00
1506.98,11092.00
1508.20,12249.00
1509.43,11388.00
1510.66,11923.00
1511.88,11695.00
1513.11,11718.00
1514.33,11474.00
1515.55,11107.00
1516.78,12152.00
1518.00,10467.00
1519.22,11576.00
1520.44,11052.00
1521.66,11050.00
1522.88,10633.00
1524.10,10391.00
1525.32,11569.00
1526.54,9781.00
1527.76,10974.00
1528.98,10644.00
1530.19,11522.00
1531.41,10619.00
1532.63,10179.00
1533.84,10521.00
1535.06,10886.00
1536.27,10404.00
1537.48,10540.00
1538.70,9907.00
1539.91,11381.00
1541.12,12351.00
1542.33,11849.00
1543.55,11723.00
1544.76,10099.00
1545.97,10689.00
1547.18,12111.00
1548.39,10399.00
1549.59,12869.00
1550.80,13134.00
1552.01,13072.00
1553.22,12473.00
1554.42,12629.00
1555.63,14107.00
1556.84,13525.00
1558.04,14505.00
1559.24,14740.00
1560.45,13815.00
1561.65,13900.00
1562.86,15118.00
1564.06,14116.00
1565.26,13705.00
1566.46,14405.00
1567.66,15010.00
1568.86,14016.00
1570.06,15500.00
1571.26,14205.00
1572.46,14347.00
1573.66,14283.00
1574.86,13083.00
1576.05,11852.00
1577.25,13352.00
1578.45,12077.00
1579.64,13255.00
1580.84,11139.00
1582.03,11566.00
1583.23,12332.00
1584.42,11860.00
1585.61,11386.00
1586.81,11867.00
1588.00,9872.00
1589.19,11369.00
1590.38,11765.00
1591.57,12265.00
1592.76,12241.00
1593.95,13976.00
1595.14,12044.00
1596.33,12437.00
1597.52,14077.00
1598.71,16019.00
1599.90,15709.00
1601.08,15889.00
1602.27,15235.00
1603.45,17940.00
1604.64,17335.00
1605.83,18584.00
1607.01,17914.00
1608.19,18416.00
1609.38,21023.00
1610.56,18706.00
1611.74,20291.00
1612.92,20383.00
1614.11,19870.00
1615.29,21449.00
1616.47,19315.00
1617.65,19711.00
1618.83,21524.00
1620.01,19798.00
1621.18,20424.00
1622.36,21175.00
1623.54,19791.00
1624.72,18801.00
1625.89,18687.00
1627.07,19907.00
1628.25,18424.00
1629.42,18146.00
1630.60,17880.00
1631.77,17420.00
1632.94,16875.00
1634.12,18774.00
1635.29,17830.00
1636.46,18410.00
1637.63,18761.00
1638.80,17897.00
1639.98,18667.00
1641.15,19604.00
1642.32,18662.00
1643.49,17054.00
1644.65,18323.00
1645.82,18940.00
1646.99,17956.00
1648.16,17564.00
1649.33,16986.00
1650.49,17263.00
1651.66,17669.00
1652.82,16214.00
1653.99,17406.00
1655.15,15934.00
1656.32,15552.00
1657.48,16358.00
1658.65,15689.00
1659.81,14898.00
1660.97,15160.00
1662.13,14764.00
1663.29,14414.00
1664.45,14142.00
1665.62,13466.00
1666.78,13230.00
1667.94,13418.00
1669.09,13208.00
1670.25,12625.00
1671.41,10918.00
1672.57,11412.00
1673.73,10212.00
1674.88,11046.00
1676.04,9820.00
1677.20,9458.00
1678.35,9551.00
1679.51,8839.00
1680.66,9131.00
1681.82,8349.00
1682.97,9055.00
1684.12,8774.00
1685.27,7400.00
1686.43,8238.00
1687.58,7890.00
1688.73,8158.00
1689.88,7047.00
1691.03,7613.00
1692.18,6807.00
1693.33,7105.00
1694.48,7084.00
1695.63,7331.00
1696.78,6466.00
1697.93,7607.00
1699.07,6755.00
1700.22,6732.00
1701.37,6325.00
1702.51,8108.00
1703.66,6650.00
1704.80,6436.00
1705.95,6184.00
1707.09,5266.00
1708.24,7389.00
1709.38,5908.00
1710.52,6393.00
1711.67,6448.00
1712.81,5573.00
1713.95,7179.00
1715.09,5600.00
1716.23,6044.00
1717.37,5420.00
1718.51,6002.00
1719.65,6295.00
1720.79,6677.00
1721.93,6711.00
1723.07,5950.00
1724.20,6963.00
1725.34,6628.00
1726.48,5635.00
1727.62,6078.00
1728.75,7137.00
1729.89,5845.00
1731.02,7081.00
1732.16,6744.00
1733.29,5945.00
1734.43,5824.00
1735.56,7696.00
1736.69,5965.00
1737.82,5869.00
1738.96,6316.00
1740.09,6480.00
1741.22,6738.00
1742.35,6634.00
1743.48,4956.00
1744.61,6260.00
1745.74,6473.00
1746.87,6359.00
1748.00,6690.00
1749.13,5894.00
1750.25,6303.00
1751.38,5988.00
1752.51,6032.00
1753.64,6643.00
1754.76,6668.00
1755.89,6572.00
1757.01,7145.00
1758.14,6526.00
1759.26,5952.00
1760.39,6043.00
1761.51,5738.00
1762.63,7043.00
1763.76,6727.00
1764.88,6173.00
1766.00,7198.00
1767.12,6888.00
1768.24,5122.00
1769.37,6450.00
1770.49,6097.00
1771.61,6975.00
1772.73,5647.00
1773.85,6775.00
1774.96,6202.00
1776.08,6884.00
1777.20,5727.00
1778.32,6213.00
1779.44,6239.00
1780.55,6825.00
1781.67,7138.00
1782.78,7413.00
1783.90,6807.00
1785.01,6099.00
1786.13,7159.00
1787.24,5424.00
1788.36,6440.00
1789.47,6431.00
1790.58,5095.00
1791.70,5938.00
1792.81,6493.00
1793.92,5940.00
1795.03,5443.00
1796.14,6138.00
1797.26,5073.00
1798.37,5601.00
1799.48,5855.00
1800.58,6533.00
1801.69,4590.00
1802.80,5381.00
1803.91,6551.00
1805.02,5750.00
1806.13,5897.00
1807.23,5178.00
1808.34,5715.00
1809.45,5044.00
1810.55,5811.00
1811.66,6456.00
1812.76,5384.00
1813.87,6036.00
1814.97,5770.00
1816.08,5778.00
1817.18,5892.00
1818.28,5299.00
1819.39,6014.00
1820.49,5895.00
1821.59,4996.00
1822.69,5459.00
1823.79,6062.00
1824.90,4929.00
1826.00,4920.00
1827.10,5996.00
1828.20,3796.00
1829.30,4611.00
1830.39,4599.00
1831.49,5090.00
1832.59,4634.00
1833.69,4984.00
1834.79,5386.00
1835.88,4629.00
1836.98,4500.00
1838.08,5455.00
1839.17,4735.00
1840.27,5112.00
1841.36,4700.00
1842.46,4917.00
1843.55,4463.00
1844.65,4514.00
1845.74,4917.00
1846.83,4742.00
1847.93,4694.00
1849.02,5403.00
1850.11,4499.00
1851.20,4945.00
1852.30,4370.00
1853.39,5190.00
1854.48,4493.00
1855.57,4818.00
1856.66,4133.00
1857.75,4994.00
1858.84,3545.00
1859.93,4332.00
1861.01,5414.00
1862.10,3280.00
1863.19,4962.00
1864.28,4054.00
1865.37,4191.00
1866.45,5150.00
1867.54,4199.00
1868.62,5062.00
1869.71,4249.00
1870.79,3875.00
1871.88,4346.00
1872.96,4538.00
1874.05,3960.00
1875.13,4450.00
1876.22,4166.00
1877.30,4226.00
1878.38,4291.00
1879.46,3546.00
1880.55,4666.00
1881.63,4105.00
1882.71,4436.00
1883.79,3415.00
1884.87,4079.00
1885.95,4161.00
1887.03,4315.00
1888.11,4187.00
1889.19,4537.00
1890.27,3681.00
1891.35,3186.00
1892.42,4022.00
1893.50,3848.00
1894.58,3564.00
1895.66,4232.00
1896.73,3827.00
1897.81,4774.00
1898.89,4332.00
1899.96,2901.00
1901.04,4099.00
1902.11,3651.00
1903.19,3834.00
1904.26,3091.00
1905.33,3668.00
1906.41,4272.00
1907.48,3641.00
1908.55,3517.00
1909.63,4355.00
1910.70,4135.00
1911.77,4461.00
1912.84,3688.00
1913.91,3936.00
1914.98,3277.00
1916.05,3229.00
1917.12,3801.00
1918.19,3991.00
1919.26,3422.00
1920.33,3557.00
1921.40,4108.00
1922.47,3332.00
1923.54,3963.00
1924.60,2877.00
1925.67,3998.00
1926.74,2487.00
1927.80,3857.00
1928.87,4431.00
1929.94,2869.00
1931.00,2860.00
1932.07,3171.00
1933.13,2750.00
1934.20,3022.00
1935.26,3757.00
1936.33,3022.00
1937.39,3831.00
1938.45,3776.00
1939.52,3164.00
1940.58,4473.00
1941.64,3607.00
1942.70,3400.00
1943.76,3396.00
1944.83,3560.00
1945.89,3288.00
1946.95,2821.00
1948.01,3705.00
1949.07,3773.00
1950.13,3435.00
1951.19,2713.00
1952.25,3387.00
1953.30,2489.00
1954.36,4271.00
1955.42,3191.00
1956.48,3968.00
1957.54,2816.00
1958.59,3324.00
1959.65,3755.00
1960.71,3260.00
1961.76,3576.00
1962.82,3493.00
1963.87,2863.00
1964.93,3500.00
1965.98,3973.00
1967.04,3705.00
1968.09,3177.00
1969.15,2434.00
1970.20,3499.00
1971.25,2869.00
1972.31,4483.00
1973.36,3279.00
1974.41,3333.00
1975.46,3605.00
1976.51,2958.00
1977.57,3487.00
1978.62,3104.00
1979.67,3563.00
1980.72,3894.00
1981.77,3434.00
1982.82,3613.00
1983.87,3893.00
1984.92,2831.00
1985.96,3132.00
1987.01,3865.00
1988.06,2970.00
1989.11,3848.00
1990.16,3698.00
1991.20,3308.00
1992.25,4079.00
1993.30,3134.00
1994.34,2750.00
1995.39,3137.00
1996.44,4045.00
1997.48,2787.00
1998.53,3523.00
1999.57,3935.00
2000.62,3051.00
2001.66,4154.00
2002.70,3584.00
2003.75,2955.00
2004.79,3206.00
2005.83,3248.00
2006.88,4234.00
2007.92,3507.00
2008.96,3770.00
2010.00,3932.00
2011.04,3113.00
2012.08,3038.00
2013.13,3731.00
2014.17,3853.00
2015.21,3263.00
2016.25,3927.00
2017.29,4015.00
2018.33,3675.00
2019.36,3517.00
2020.40,3374.00
2021.44,4361.00
2022.48,3528.00
2023.52,3885.00
2024.56,2462.00
2025.59,3912.00
2026.63,3820.00
2027.67,3777.00
2028.70,3783.00
2029.74,2840.00
2030.78,3594.00
2031.81,3777.00
2032.85,4033.00
2033.88,3665.00
2034.92,3657.00
2035.95,3707.00
2036.98,3451.00
2038.02,3531.00
2039.05,3587.00
2040.08,3183.00
2041.12,3964.00
2042.15,4450.00
2043.18,3255.00
2044.21,4183.00
2045.25,3103.00
2046.28,4072.00
2047.31,3466.00
2048.34,3731.00
2049.37,3773.00
2050.40,3050.00
2051.43,4171.00
2052.46,2470.00
2053.49,2263.00
2054.52,3115.00
2055.55,3928.00
2056.58,3507.00
2057.61,3149.00
2058.63,3461.00
2059.66,2729.00
2060.69,3175.00
2061.72,3663.00
2062.74,3945.00
2063.77,3611.00
2064.80,3156.00
2065.82,3792.00
2066.85,3558.00
2067.87,3019.00
2068.90,2976.00
2069.92,3715.00
2070.95,2647.00
2071.97,2667.00
2073.00,3390.00
2074.02,3292.00
2075.05,3812.00
2076.07,2944.00
2077.09,3504.00
2078.12,3024.00
2079.14,3429.00
2080.16,2323.00
2081.18,3541.00
2082.20,3201.00
2083.23,3430.00
2084.25,2153.00
2085.27,2882.00
2086.29,2262.00
2087.31,2756.00
2088.33,2769.00
2089.35,2385.00
2090.37,2478.00
2091.39,2606.00
2092.41,1985.00
2093.43,3092.00
2094.44,2885.00
2095.46,2902.00
2096.48,2587.00
2097.50,2752.00
2098.52,3464.00
2099.53,2598.00
2100.55,3104.00
2101.57,2423.00
2102.58,2505.00
2103.60,3041.00
2104.62,3055.00
2105.63,2615.00
2106.65,2565.00
2107.66,2024.00
2108.68,2504.00
2109.69,1821.00
2110.71,2860.00
2111.72,2508.00
2112.73,2969.00
2113.75,2204.00
2114.76,2653.00
2115.77,1743.00
2116.79,2210.00
2117.80,2108.00
2118.81,2060.00
2119.82,2401.00
2120.84,2479.00
2121.85,2161.00
2122.86,2641.00
2123.87,1832.00
2124.88,2271.00
2125.89,2192.00
2126.90,2122.00
2127.91,1610.00
2128.92,2105.00
2129.93,2373.00
2130.94,1324.00
2131.95,2101.00
2132.96,2277.00
2133.97,1717.00
2134.97,1601.00
2135.98,2942.00
2136.99,2169.00
2138.00,2100.00
2139.01,1794.00
2140.01,2432.00
2141.02,3545.00
2142.03,2169.00
2143.03,2109.00
2144.04,1998.00
2145.04,2053.00
2146.05,1863.00
2147.06,2629.00
2148.06,1977.00
2149.07,1883.00
2150.07,1578.00
2151.07,1724.00
2152.08,2403.00
2153.08,2229.00
2154.09,1735.00
2155.09,1591.00
2156.09,1259.00
2157.10,1344.00
2158.10,1800.00
2159.10,1302.00
2160.10,2130.00
2161.11,1998.00
2162.11,1688.00
2163.11,1840.00
2164.11,1396.00
2165.11,1866.00
2166.11,1091.00
2167.11,2091.00
2168.11,1903.00
2169.11,1303.00
2170.11,1746.00
2171.11,3164.00
2172.11,1852.00
2173.11,1562.00
2174.11,1589.00
2175.11,1943.00
2176.11,1765.00
2177.11,1717.00
2178.10,2845.00
2179.10,1700.00
2180.10,1682.00
2181.10,1657.00
2182.09,2009.00
2183.09,1816.00
2184.09,2167.00
2185.08,2412.00
2186.08,2171.00
2187.08,1823.00
2188.07,1824.00
2189.07,2453.00
2190.06,1983.00
2191.06,1896.00
2192.05,1530.00
2193.05,2509.00
2194.04,2058.00
2195.04,2939.00
2196.03,1528.00
2197.02,1362.00
2198.02,2097.00
2199.01,1510.00
2200.00,2012.00
2201.00,1698.00
2201.99,2053.00
2202.98,1252.00
2203.97,772.00
2204.97,1764.00
2205.96,2032.00
2206.95,2046.00
2207.94,1195.00
2208.93,1687.00
2209.92,1594.00
2210.91,1409.00
2211.90,3007.00
2212.89,1127.00
2213.88,1465.00
2214.87,1859.00
2215.86,1731.00
2216.85,1986.00
2217.84,2766.00
2218.83,2324.00
2219.82,2044.00
2220.81,1833.00
2221.80,1561.00
2222.78,1868.00
2223.77,2394.00
2224.76,1527.00
2225.75,2046.00
2226.73,1584.00
2227.72,2037.00
2228.71,2114.00
2229.70,2027.00
2230.68,1739.00
2231.67,1679.00
2232.65,2143.00
2233.64,1653.00
2234.63,1937.00
2235.61,1777.00
2236.60,1670.00
2237.58,1957.00
2238.57,1941.00
2239.55,1537.00
2240.53,2110.00
2241.52,2372.00
2242.50,1770.00
2243.49,1891.00
2244.47,2244.00
2245.45,1210.00
2246.44,1592.00
2247.42,1506.00
2248.40,2072.00
2249.38,2491.00
2250.37,1843.00
2251.35,1567.00
2252.33,1467.00
2253.31,1412.00
2254.29,1462.00
2255.28,1678.00
2256.26,2172.00
2257.24,2559.00
2258.22,1785.00
2259.20,2631.00
2260.18,1208.00
2261.16,1963.00
2262.14,2233.00
2263.12,1241.00
2264.10,2023.00
2265.08,951.00
2266.06,1950.00
2267.04,1194.00
2268.01,1302.00
2268.99,1097.00
2269.97,2394.00
2270.95,2033.00
2271.93,2139.00
2272.90,2106.00
2273.88,1587.00
2274.86,2168.00
2275.84,1174.00
2276.81,1975.00
2277.79,1452.00
2278.77,1651.00
2279.74,2499.00
2280.72,2363.00
2281.70,2069.00
2282.67,1009.00
2283.65,1495.00
2284.62,1769.00
2285.60,1715.00
2286.57,1789.00
2287.55,2551.00
2288.52,2123.00
2289.50,1654.00
2290.47,2055.00
2291.45,2188.00
2292.42,1813.00
2293.39,1388.00
2294.37,1824.00
2295.34,1637.00
2296.31,2941.00
2297.29,1925.00
2298.26,1948.00
2299.23,1948.00
2300.21,1958.00
2301.18,2267.00
2302.15,1965.00
2303.12,2141.00
2304.09,1697.00
2305.07,2045.00
2306.04,1489.00
2307.01,1888.00
2307.98,1733.00
2308.95,1957.00
2309.92,1526.00
2310.89,1881.00
2311.86,1737.00
2312.83,1401.00
2313.80,2144.00
2314.77,1971.00
2315.74,789.00
2316.71,1911.00
2317.68,1864.00
2318.65,1402.00
2319.62,2004.00
2320.59,812.00
2321.56,1848.00
2322.53,1691.00
2323.49,1515.00
2324.46,1901.00
2325.43,1044.00
2326.40,1513.00
2327.36,1237.00
2328.33,1257.00
2329.30,1293.00
2330.27,1752.00
2331.23,2025.00
2332.20,2005.00
2333.17,1663.00
2334.13,1927.00
2335.10,595.00
2336.07,931.00
2337.03,1619.00
2338.00,1321.00
2338.96,1804.00
2339.93,1836.00
2340.89,1167.00
2341.86,1755.00
2342.82,2249.00
2343.79,1908.00
2344.75,1941.00
2345.72,1478.00
2346.68,992.00
2347.64,1457.00
2348.61,1364.00
2349.57,1987.00
2350.54,2423.00
2351.50,2050.00
2352.46,1249.00
2353.43,2308.00
2354.39,2032.00
2355.35,1190.00
2356.31,1178.00
2357.28,1542.00
2358.24,1338.00
2359.20,1878.00
2360.16,918.00
2361.12,1166.00
2362.09,697.00
2363.05,1452.00
2364.01,940.00
2364.97,1178.00
2365.93,1201.00
2366.89,1067.00
2367.85,802.00
2368.81,2016.00
2369.77,885.00
2370.73,1169.00
2371.69,916.00
2372.65,848.00
2373.61,1045.00
2374.57,382.00
2375.53,683.00
2376.49,1284.00
2377.45,956.00
2378.41,787.00
2379.37,1144.00
2380.33,1049.00
2381.29,1462.00
2382.24,975.00
2383.20,1579.00
2384.16,912.00
2385.12,-18.00
2386.08,1366.00
2387.03,1384.00
2387.99,942.00
2388.95,793.00
2389.91,749.00
2390.86,1072.00
2391.82,237.00
2392.78,1081.00
2393.73,1029.00
2394.69,1057.00
2395.65,1438.00
2396.60,1173.00
2397.56,515.00
2398.51,105.00
2399.47,478.00
2400.43,1298.00
2401.38,812.00
2402.34,847.00
2403.29,1369.00
2404.25,921.00
2405.20,1719.00
2406.16,908.00
2407.11,1276.00
2408.07,621.00
2409.02,1051.00
2409.97,543.00
2410.93,1603.00
2411.88,1469.00
2412.84,1319.00
2413.79,1142.00
2414.74,1193.00
2415.70,1344.00
2416.65,1250.00
2417.60,1295.00
2418.55,1161.00
2419.51,1015.00
2420.46,1372.00
2421.41,683.00
2422.37,480.00
2423.32,1206.00
2424.27,1127.00
2425.22,1651.00
2426.17,1259.00
2427.12,240.00
2428.08,646.00
2429.03,581.00
2429.98,1127.00
2430.93,1269.00
2431.88,1415.00
2432.83,1682.00
2433.78,1205.00
2434.73,2253.00
2435.68,1949.00
2436.63,1004.00
2437.58,712.00
2438.53,1095.00
2439.48,1414.00
2440.43,581.00
2441.38,1147.00
2442.33,537.00
2443.28,1388.00
2444.23,1109.00
2445.18,1483.00
2446.13,660.00
2447.08,1359.00
2448.03,823.00
2448.98,1025.00
2449.92,1447.00
2450.87,294.00
2451.82,1062.00
2452.77,475.00
2453.72,578.00
2454.67,1418.00
2455.61,1207.00
2456.56,1430.00
2457.51,1599.00
2458.46,1325.00
2459.40,194.00
2460.35,896.00
2461.30,1006.00
2462.24,1219.00
2463.19,575.00
2464.14,1021.00
2465.08,566.00
2466.03,1097.00
2466.98,173.00
2467.92,1129.00
2468.87,1773.00
2469.81,556.00
2470.76,1252.00
2471.71,1203.00
2472.65,1673.00
2473.60,1039.00
2474.54,482.00
2475.49,1285.00
2476.43,417.00
2477.38,1001.00
2478.32,1027.00
2479.27,1290.00
2480.21,1347.00
2481.16,725.00
2482.10,1010.00
2483.05,720.00
2483.99,1016.00
2484.93,532.00
2485.88,1460.00
2486.82,432.00
2487.76,2181.00
2488.71,993.00
2489.65,1476.00
2490.60,1042.00
2491.54,764.00
2492.48,904.00
2493.42,1173.00
2494.37,1216.00
2495.31,593.00
2496.25,585.00
2497.20,1380.00
2498.14,1356.00
2499.08,873.00
2500.02,909.00
2500.96,626.00
2501.91,653.00
2502.85,814.00
2503.79,1306.00
2504.73,2080.00
2505.67,363.00
2506.62,704.00
2507.56,1547.00
2508.50,1129.00
2509.44,831.00
2510.38,1160.00
2511.32,1140.00
2512.26,1296.00
2513.20,1092.00
2514.14,851.00
2515.08,1199.00
2516.02,1237.00
2516.96,784.00
2517.91,965.00
2518.85,926.00
2519.79,473.00
2520.73,662.00
2521.66,947.00
2522.60,581.00
2523.54,811.00
2524.48,1078.00
2525.42,1176.00
2526.36,620.00
2527.30,483.00
2528.24,1017.00
2529.18,344.00
2530.12,912.00
2531.06,1099.00
2532.00,1159.00
2532.93,1303.00
2533.87,922.00
2534.81,1337.00
2535.75,925.00
2536.69,684.00
2537.63,-125.00
2538.56,955.00
2539.50,938.00
2540.44,1581.00
2541.38,1382.00
2542.32,1722.00
2543.25,1411.00
2544.19,1372.00
2545.13,700.00
2546.07,899.00
2547.00,701.00
2547.94,1053.00
2548.88,1669.00
2549.81,1172.00
2550.75,1379.00
2551.69,1428.00
2552.62,774.00
2553.56,710.00
2554.50,751.00
2555.43,348.00
2556.37,1151.00
2557.30,710.00
2558.24,909.00
2559.18,241.00
2560.11,990.00
2561.05,1045.00
2561.98,630.00
2562.92,196.00
2563.86,933.00
2564.79,542.00
2565.73,-205.00
2566.66,860.00
2567.60,245.00
2568.53,980.00
2569.47,942.00
2570.40,737.00
2571.34,905.00
2572.27,155.00
2573.21,858.00
2574.14,1118.00
2575.07,599.00
2576.01,909.00
2576.94,1033.00
2577.88,655.00
2578.81,1051.00
2579.75,623.00
2580.68,868.00
2581.61,527.00
2582.55,797.00
2583.48,352.00
2584.42,853.00
2585.35,895.00
2586.28,157.00
2587.22,610.00
2588.15,237.00
2589.08,1241.00
2590.02,783.00
2590.95,737.00
2591.88,731.00
2592.81,1100.00
2593.75,1297.00
2594.68,460.00
2595.61,726.00
2596.55,240.00
2597.48,126.00
2598.41,1027.00
2599.34,717.00
2600.28,912.00
2601.21,109.00
2602.14,-49.00
2603.07,753.00
2604.00,227.00
2604.94,933.00
2605.87,695.00
2606.80,692.00
2607.73,904.00
2608.66,938.00
2609.59,-21.00
2610.53,573.00
2611.46,960.00
2612.39,726.00
2613.32,851.00
2614.25,337.00
2615.18,-440.00
2616.11,101.00
2617.04,1117.00
2617.97,342.00
2618.91,256.00
2619.84,1046.00
2620.77,277.00
2621.70,933.00
2622.63,851.00
2623.56,-215.00
2624.49,-140.00
2625.42,700.00
2626.35,650.00
2627.28,-287.00
2628.21,627.00
2629.14,522.00
2630.07,1148.00
2631.00,840.00
2631.93,685.00
2632.86,872.00
2633.79,750.00
2634.72,487.00
2635.65,554.00
2636.58,1066.00
2637.51,-612.00
2638.44,288.00
2639.37,980.00
2640.30,688.00
2641.23,96.00
2642.15,708.00
2643.08,462.00
2644.01,166.00
2644.94,529.00
2645.87,310.00
2646.80,438.00
2647.73,41.00
2648.66,459.00
2649.59,674.00
2650.51,561.00
2651.44,139.00
2652.37,93.00
2653.30,456.00
2654.23,608.00
2655.16,707.00
2656.08,1123.00
2657.01,874.00
2657.94,195.00
2658.87,325.00
2659.80,526.00
2660.72,-68.00
2661.65,639.00
2662.58,591.00
2663.51,815.00
2664.44,557.00
2665.36,626.00
2666.29,849.00
2667.22,47.00
2668.15,-131.00
2669.07,660.00
2670.00,235.00
2670.93,429.00
2671.86,659.00
2672.78,484.00
2673.71,672.00
2674.64,0.00
2675.56,0.00
2676.49,0.00
2677.42,0.00
2678.35,0.00
