ENLIGHTEN Version,1.6.8
Measurement ID,20190528-110037-508483-WP-00357
Serial Number,WP-00357
Label,Acetone
Integration Time,7
Timestamp,2019-05-28 11:00:37.508483
Note,
Temperature,-99
CCD C0,801.1829833984375
CCD C1,0.12474799901247025
CCD C2,-2.2862799596623518e-05
CCD C3,4.907460215974879e-09
CCD Offset,0
CCD Gain,1.9
Laser Wavelength,785.0
Laser Enable,False
Laser Power,100.0
Laser Temperature,-99
Pixel Count,1952

Wavenumber,Processed
257.31,0.00
259.25,0.00
261.19,0.00
263.13,282.00
265.07,-539.00
267.01,235.00
268.95,-726.00
270.88,-909.00
272.82,203.00
274.75,-160.00
276.68,-265.00
278.61,-309.00
280.54,-192.00
282.46,-735.00
284.39,-8.00
286.31,-472.00
288.24,-239.00
290.16,429.00
292.08,-772.00
294.00,15.00
295.92,-793.00
297.83,-530.00
299.75,767.00
301.66,-239.00
303.58,-648.00
305.49,96.00
307.40,-445.00
309.31,-412.00
311.22,-221.00
313.12,205.00
315.03,193.00
316.93,-862.00
318.83,219.00
320.73,-652.00
322.63,-653.00
324.53,-152.00
326.43,-244.00
328.33,-439.00
330.22,-9.00
332.12,481.00
334.01,-39.00
335.90,-601.00
337.79,347.00
339.68,-94.00
341.57,-375.00
343.45,-771.00
345.34,-406.00
347.22,-504.00
349.10,-502.00
350.98,64.00
352.86,160.00
354.74,-24.00
356.62,-683.00
358.50,-497.00
360.37,-1147.00
362.24,-213.00
364.12,342.00
365.99,-797.00
367.86,-152.00
369.73,250.00
371.59,75.00
373.46,145.00
375.33,-184.00
377.19,380.00
379.05,519.00
380.91,-54.00
382.77,-89.00
384.63,1537.00
386.49,676.00
388.35,1411.00
390.20,552.00
392.06,1809.00
393.91,1206.00
395.76,2153.00
397.61,1166.00
399.46,1434.00
401.31,508.00
403.15,633.00
405.00,504.00
406.84,691.00
408.69,405.00
410.53,1026.00
412.37,928.00
414.21,816.00
416.05,170.00
417.88,378.00
419.72,-105.00
421.55,439.00
423.39,155.00
425.22,-374.00
427.05,1201.00
428.88,-124.00
430.71,680.00
432.54,87.00
434.36,10.00
436.19,-1021.00
438.01,365.00
439.83,-335.00
441.65,-162.00
443.48,-128.00
445.29,151.00
447.11,498.00
448.93,608.00
450.74,-178.00
452.56,543.00
454.37,873.00
456.18,410.00
457.99,450.00
459.80,603.00
461.61,447.00
463.42,325.00
465.23,1142.00
467.03,738.00
468.83,558.00
470.64,591.00
472.44,1817.00
474.24,138.00
476.04,511.00
477.84,1284.00
479.63,918.00
481.43,1707.00
483.22,1453.00
485.02,967.00
486.81,2393.00
488.60,1734.00
490.39,1941.00
492.18,1448.00
493.96,1331.00
495.75,2003.00
497.54,1932.00
499.32,1610.00
501.10,1649.00
502.88,1850.00
504.67,1720.00
506.45,1530.00
508.22,2856.00
510.00,1641.00
511.78,1708.00
513.55,2063.00
515.33,2430.00
517.10,2749.00
518.87,3275.00
520.64,3069.00
522.41,4729.00
524.18,4224.00
525.94,4221.00
527.71,6325.00
529.47,5658.00
531.24,5765.00
533.00,5419.00
534.76,4310.00
536.52,3277.00
538.28,2971.00
540.04,3082.00
541.80,2024.00
543.55,2149.00
545.31,1430.00
547.06,1065.00
548.81,504.00
550.56,591.00
552.31,779.00
554.06,168.00
555.81,642.00
557.56,936.00
559.30,-211.00
561.05,803.00
562.79,821.00
564.53,637.00
566.28,-744.00
568.02,630.00
569.75,-252.00
571.49,195.00
573.23,435.00
574.97,728.00
576.70,403.00
578.43,28.00
580.17,64.00
581.90,194.00
583.63,-139.00
585.36,169.00
587.09,-712.00
588.81,9.00
590.54,-145.00
592.26,1116.00
593.99,182.00
595.71,179.00
597.43,170.00
599.15,271.00
600.87,-199.00
602.59,-239.00
604.31,-336.00
606.02,-56.00
607.74,251.00
609.45,352.00
611.17,801.00
612.88,-461.00
614.59,291.00
616.30,560.00
618.01,523.00
619.71,-437.00
621.42,-302.00
623.13,553.00
624.83,329.00
626.53,213.00
628.24,611.00
629.94,-103.00
631.64,-87.00
633.34,28.00
635.04,218.00
636.73,144.00
638.43,645.00
640.12,316.00
641.82,-144.00
643.51,51.00
645.20,267.00
646.89,-501.00
648.58,51.00
650.27,502.00
651.96,-379.00
653.65,416.00
655.33,190.00
657.02,205.00
658.70,-569.00
660.38,319.00
662.06,-100.00
663.74,-381.00
665.42,196.00
667.10,433.00
668.78,-45.00
670.45,-1.00
672.13,-165.00
673.80,107.00
675.48,180.00
677.15,850.00
678.82,298.00
680.49,166.00
682.16,241.00
683.83,500.00
685.49,426.00
687.16,184.00
688.82,418.00
690.49,293.00
692.15,515.00
693.81,78.00
695.47,-294.00
697.13,250.00
698.79,-286.00
700.45,414.00
702.11,839.00
703.76,-94.00
705.42,-385.00
707.07,819.00
708.72,551.00
710.37,-114.00
712.02,-9.00
713.67,569.00
715.32,-61.00
716.97,-93.00
718.62,-248.00
720.26,301.00
721.91,26.00
723.55,269.00
725.19,591.00
726.84,296.00
728.48,1147.00
730.12,557.00
731.75,827.00
733.39,185.00
735.03,37.00
736.66,771.00
738.30,331.00
739.93,314.00
741.57,955.00
743.20,882.00
744.83,665.00
746.46,453.00
748.09,550.00
749.71,1590.00
751.34,887.00
752.97,531.00
754.59,2307.00
756.22,1727.00
757.84,2072.00
759.46,1878.00
761.08,2638.00
762.70,2371.00
764.32,2896.00
765.94,4372.00
767.56,5852.00
769.17,5434.00
770.79,7163.00
772.40,9137.00
774.01,12538.00
775.63,15523.00
777.24,20029.00
778.85,25105.00
780.46,29708.00
782.07,35882.00
783.67,39452.00
785.28,42657.00
786.88,42914.00
788.49,42717.00
790.09,40982.00
791.70,36782.00
793.30,32060.00
794.90,25719.00
796.50,20326.00
798.10,17978.00
799.69,13017.00
801.29,9582.00
802.89,7446.00
804.48,6646.00
806.08,4906.00
807.67,3288.00
809.26,3168.00
810.85,3069.00
812.44,3323.00
814.03,2335.00
815.62,2470.00
817.21,2005.00
818.79,2664.00
820.38,2086.00
821.96,1261.00
823.55,921.00
825.13,1581.00
826.71,1729.00
828.29,1026.00
829.87,1218.00
831.45,455.00
833.03,1673.00
834.61,1040.00
836.18,1298.00
837.76,977.00
839.33,1165.00
840.91,1675.00
842.48,1043.00
844.05,1091.00
845.62,504.00
847.19,358.00
848.76,906.00
850.33,1202.00
851.90,1296.00
853.46,867.00
855.03,1167.00
856.59,1097.00
858.15,385.00
859.72,410.00
861.28,1012.00
862.84,427.00
864.40,925.00
865.96,-297.00
867.52,673.00
869.07,238.00
870.63,1164.00
872.18,597.00
873.74,419.00
875.29,1065.00
876.84,1487.00
878.40,592.00
879.95,354.00
881.50,923.00
883.04,1619.00
884.59,505.00
886.14,1370.00
887.69,1432.00
889.23,1037.00
890.78,1261.00
892.32,1108.00
893.86,1272.00
895.40,1466.00
896.94,2106.00
898.48,1224.00
900.02,2014.00
901.56,1285.00
903.10,1925.00
904.63,1569.00
906.17,1417.00
907.70,1419.00
909.24,1316.00
910.77,874.00
912.30,997.00
913.83,2130.00
915.36,1596.00
916.89,1096.00
918.42,1056.00
919.95,1335.00
921.48,1421.00
923.00,586.00
924.53,783.00
926.05,856.00
927.57,862.00
929.10,1028.00
930.62,301.00
932.14,906.00
933.66,1063.00
935.18,657.00
936.70,940.00
938.21,504.00
939.73,998.00
941.24,728.00
942.76,578.00
944.27,905.00
945.79,160.00
947.30,-327.00
948.81,172.00
950.32,223.00
951.83,491.00
953.34,960.00
954.84,-38.00
956.35,1596.00
957.86,79.00
959.36,675.00
960.87,63.00
962.37,1153.00
963.87,710.00
965.37,221.00
966.88,-155.00
968.38,650.00
969.87,341.00
971.37,176.00
972.87,-114.00
974.37,542.00
975.86,1044.00
977.36,-752.00
978.85,174.00
980.35,-441.00
981.84,825.00
983.33,797.00
984.82,198.00
986.31,934.00
987.80,916.00
989.29,-174.00
990.77,-393.00
992.26,340.00
993.75,20.00
995.23,-97.00
996.72,627.00
998.20,-72.00
999.68,639.00
1001.16,311.00
1002.64,39.00
1004.12,876.00
1005.60,94.00
1007.08,699.00
1008.56,672.00
1010.04,-192.00
1011.51,118.00
1012.99,617.00
1014.46,-474.00
1015.93,-157.00
1017.41,-236.00
1018.88,-138.00
1020.35,636.00
1021.82,516.00
1023.29,266.00
1024.76,1153.00
1026.23,368.00
1027.69,759.00
1029.16,338.00
1030.62,74.00
1032.09,250.00
1033.55,220.00
1035.02,-174.00
1036.48,-297.00
1037.94,120.00
1039.40,515.00
1040.86,346.00
1042.32,212.00
1043.78,205.00
1045.23,997.00
1046.69,633.00
1048.15,1478.00
1049.60,860.00
1051.05,1600.00
1052.51,1430.00
1053.96,1552.00
1055.41,1188.00
1056.86,1651.00
1058.31,1959.00
1059.76,3243.00
1061.21,2312.00
1062.66,2736.00
1064.10,3342.00
1065.55,2880.00
1067.00,3665.00
1068.44,2458.00
1069.88,3535.00
1071.33,3418.00
1072.77,2116.00
1074.21,3417.00
1075.65,2407.00
1077.09,1889.00
1078.53,1787.00
1079.97,1553.00
1081.41,1572.00
1082.84,1426.00
1084.28,739.00
1085.71,945.00
1087.15,1063.00
1088.58,905.00
1090.02,1100.00
1091.45,879.00
1092.88,811.00
1094.31,614.00
1095.74,722.00
1097.17,682.00
1098.60,382.00
1100.02,-220.00
1101.45,540.00
1102.88,482.00
1104.30,-162.00
1105.73,1098.00
1107.15,455.00
1108.57,95.00
1109.99,-921.00
1111.42,676.00
1112.84,164.00
1114.26,190.00
1115.68,943.00
1117.09,-499.00
1118.51,317.00
1119.93,335.00
1121.34,589.00
1122.76,768.00
1124.17,727.00
1125.59,653.00
1127.00,381.00
1128.41,345.00
1129.82,224.00
1131.24,426.00
1132.65,195.00
1134.05,386.00
1135.46,-111.00
1136.87,279.00
1138.28,432.00
1139.68,99.00
1141.09,285.00
1142.50,374.00
1143.90,351.00
1145.30,589.00
1146.71,27.00
1148.11,306.00
1149.51,242.00
1150.91,353.00
1152.31,221.00
1153.71,412.00
1155.11,324.00
1156.50,-100.00
1157.90,184.00
1159.30,484.00
1160.69,41.00
1162.08,831.00
1163.48,308.00
1164.87,-6.00
1166.26,317.00
1167.66,456.00
1169.05,498.00
1170.44,208.00
1171.83,287.00
1173.21,389.00
1174.60,442.00
1175.99,171.00
1177.38,260.00
1178.76,356.00
1180.15,337.00
1181.53,784.00
1182.92,371.00
1184.30,29.00
1185.68,906.00
1187.06,218.00
1188.44,773.00
1189.82,832.00
1191.20,887.00
1192.58,1645.00
1193.96,793.00
1195.34,534.00
1196.71,539.00
1198.09,635.00
1199.46,567.00
1200.84,1380.00
1202.21,1223.00
1203.58,722.00
1204.96,1640.00
1206.33,1905.00
1207.70,2263.00
1209.07,1562.00
1210.44,3080.00
1211.81,2251.00
1213.17,3510.00
1214.54,3210.00
1215.91,3617.00
1217.27,4101.00
1218.64,3700.00
1220.00,4647.00
1221.37,4146.00
1222.73,3959.00
1224.09,3815.00
1225.45,4082.00
1226.82,2559.00
1228.18,3485.00
1229.54,3252.00
1230.89,3316.00
1232.25,2603.00
1233.61,2180.00
1234.97,1778.00
1236.32,3198.00
1237.68,2364.00
1239.03,1894.00
1240.39,2000.00
1241.74,1633.00
1243.09,934.00
1244.45,1647.00
1245.80,1556.00
1247.15,1424.00
1248.50,1276.00
1249.85,1164.00
1251.20,791.00
1252.54,837.00
1253.89,1330.00
1255.24,254.00
1256.58,-80.00
1257.93,1561.00
1259.27,411.00
1260.62,-625.00
1261.96,86.00
1263.30,152.00
1264.64,802.00
1265.98,286.00
1267.33,952.00
1268.67,307.00
1270.00,1147.00
1271.34,151.00
1272.68,-30.00
1274.02,395.00
1275.35,444.00
1276.69,254.00
1278.03,1806.00
1279.36,765.00
1280.69,575.00
1282.03,146.00
1283.36,667.00
1284.69,-109.00
1286.02,777.00
1287.35,673.00
1288.68,729.00
1290.01,319.00
1291.34,129.00
1292.67,899.00
1294.00,592.00
1295.32,713.00
1296.65,772.00
1297.97,-18.00
1299.30,736.00
1300.62,1099.00
1301.94,483.00
1303.27,893.00
1304.59,897.00
1305.91,154.00
1307.23,878.00
1308.55,705.00
1309.87,808.00
1311.19,361.00
1312.51,491.00
1313.82,352.00
1315.14,1084.00
1316.46,276.00
1317.77,525.00
1319.09,585.00
1320.40,1021.00
1321.72,642.00
1323.03,717.00
1324.34,185.00
1325.65,230.00
1326.96,499.00
1328.27,505.00
1329.58,954.00
1330.89,465.00
1332.20,1013.00
1333.51,1545.00
1334.82,662.00
1336.12,1474.00
1337.43,1457.00
1338.73,872.00
1340.04,710.00
1341.34,15.00
1342.65,862.00
1343.95,1598.00
1345.25,1011.00
1346.55,1337.00
1347.85,1521.00
1349.15,899.00
1350.45,1715.00
1351.75,1113.00
1353.05,1471.00
1354.35,2745.00
1355.65,1691.00
1356.94,1309.00
1358.24,1044.00
1359.53,2460.00
1360.83,1672.00
1362.12,1899.00
1363.42,1877.00
1364.71,2151.00
1366.00,1537.00
1367.29,1232.00
1368.58,1738.00
1369.87,1327.00
1371.16,1270.00
1372.45,2687.00
1373.74,1769.00
1375.03,1982.00
1376.32,1322.00
1377.60,2161.00
1378.89,1761.00
1380.17,977.00
1381.46,1862.00
1382.74,1712.00
1384.03,2427.00
1385.31,2451.00
1386.59,2062.00
1387.87,2386.00
1389.15,2304.00
1390.43,1908.00
1391.71,2947.00
1392.99,3201.00
1394.27,3385.00
1395.55,3067.00
1396.83,2546.00
1398.11,2823.00
1399.38,2748.00
1400.66,3565.00
1401.93,3905.00
1403.21,4174.00
1404.48,3909.00
1405.75,3878.00
1407.03,4765.00
1408.30,5403.00
1409.57,5184.00
1410.84,5466.00
1412.11,5652.00
1413.38,6457.00
1414.65,6254.00
1415.92,7208.00
1417.19,7599.00
1418.46,6245.00
1419.72,7555.00
1420.99,7901.00
1422.25,7872.00
1423.52,7549.00
1424.78,8027.00
1426.05,7987.00
1427.31,9686.00
1428.57,8571.00
1429.84,8043.00
1431.10,9023.00
1432.36,7896.00
1433.62,9317.00
1434.88,9215.00
1436.14,8230.00
1437.40,8654.00
1438.65,8229.00
1439.91,7822.00
1441.17,7677.00
1442.43,7817.00
1443.68,8886.00
1444.94,7106.00
1446.19,6635.00
1447.44,5745.00
1448.70,6063.00
1449.95,4986.00
1451.20,5558.00
1452.46,5592.00
1453.71,3941.00
1454.96,5463.00
1456.21,4499.00
1457.46,5400.00
1458.71,3916.00
1459.95,4281.00
1461.20,4323.00
1462.45,3704.00
1463.70,4432.00
1464.94,3285.00
1466.19,2587.00
1467.43,3316.00
1468.68,2752.00
1469.92,3001.00
1471.16,2613.00
1472.41,2685.00
1473.65,3372.00
1474.89,2962.00
1476.13,2269.00
1477.37,2038.00
1478.61,2185.00
1479.85,2066.00
1481.09,1325.00
1482.33,1693.00
1483.57,1875.00
1484.80,1887.00
1486.04,2039.00
1487.28,1518.00
1488.51,1959.00
1489.75,1249.00
1490.98,1628.00
1492.21,2451.00
1493.45,1154.00
1494.68,1586.00
1495.91,1718.00
1497.14,1563.00
1498.37,1441.00
1499.61,1985.00
1500.84,859.00
1502.06,1303.00
1503.29,1274.00
1504.52,1199.00
1505.75,2065.00
1506.98,748.00
1508.20,1662.00
1509.43,701.00
1510.66,1140.00
1511.88,351.00
1513.11,1267.00
1514.33,2581.00
1515.55,1332.00
1516.78,1620.00
1518.00,1623.00
1519.22,359.00
1520.44,1148.00
1521.66,703.00
1522.88,434.00
1524.10,481.00
1525.32,913.00
1526.54,716.00
1527.76,1202.00
1528.98,565.00
1530.19,1128.00
1531.41,1524.00
1532.63,1251.00
1533.84,213.00
1535.06,-126.00
1536.27,1068.00
1537.48,265.00
1538.70,533.00
1539.91,603.00
1541.12,1896.00
1542.33,1511.00
1543.55,542.00
1544.76,1152.00
1545.97,728.00
1547.18,1295.00
1548.39,103.00
1549.59,95.00
1550.80,640.00
1552.01,1025.00
1553.22,661.00
1554.42,-384.00
1555.63,738.00
1556.84,994.00
1558.04,882.00
1559.24,731.00
1560.45,443.00
1561.65,98.00
1562.86,1148.00
1564.06,883.00
1565.26,211.00
1566.46,918.00
1567.66,1305.00
1568.86,1540.00
1570.06,-12.00
1571.26,548.00
1572.46,1346.00
1573.66,851.00
1574.86,312.00
1576.05,189.00
1577.25,319.00
1578.45,698.00
1579.64,516.00
1580.84,76.00
1582.03,482.00
1583.23,606.00
1584.42,-220.00
1585.61,-348.00
1586.81,6.00
1588.00,221.00
1589.19,303.00
1590.38,-99.00
1591.57,666.00
1592.76,19.00
1593.95,759.00
1595.14,316.00
1596.33,-216.00
1597.52,687.00
1598.71,634.00
1599.90,698.00
1601.08,7.00
1602.27,930.00
1603.45,315.00
1604.64,344.00
1605.83,412.00
1607.01,665.00
1608.19,-211.00
1609.38,827.00
1610.56,147.00
1611.74,473.00
1612.92,497.00
1614.11,877.00
1615.29,183.00
1616.47,-145.00
1617.65,295.00
1618.83,336.00
1620.01,678.00
1621.18,102.00
1622.36,196.00
1623.54,173.00
1624.72,491.00
1625.89,605.00
1627.07,52.00
1628.25,1114.00
1629.42,96.00
1630.60,253.00
1631.77,-33.00
1632.94,-176.00
1634.12,342.00
1635.29,-304.00
1636.46,-525.00
1637.63,-186.00
1638.80,-548.00
1639.98,159.00
1641.15,207.00
1642.32,104.00
1643.49,-602.00
1644.65,10.00
1645.82,-65.00
1646.99,137.00
1648.16,587.00
1649.33,100.00
1650.49,-191.00
1651.66,52.00
1652.82,-670.00
1653.99,709.00
1655.15,91.00
1656.32,352.00
1657.48,313.00
1658.65,-433.00
1659.81,255.00
1660.97,-631.00
1662.13,-305.00
1663.29,615.00
1664.45,361.00
1665.62,454.00
1666.78,131.00
1667.94,33.00
1669.09,44.00
1670.25,1185.00
1671.41,55.00
1672.57,612.00
1673.73,242.00
1674.88,1233.00
1676.04,136.00
1677.20,149.00
1678.35,-129.00
1679.51,247.00
1680.66,679.00
1681.82,-49.00
1682.97,390.00
1684.12,643.00
1685.27,45.00
1686.43,690.00
1687.58,1092.00
1688.73,922.00
1689.88,783.00
1691.03,1778.00
1692.18,1319.00
1693.33,2621.00
1694.48,2201.00
1695.63,1834.00
1696.78,3325.00
1697.93,3142.00
1699.07,3101.00
1700.22,4038.00
1701.37,4747.00
1702.51,4707.00
1703.66,4445.00
1704.80,4240.00
1705.95,5070.00
1707.09,6458.00
1708.24,5875.00
1709.38,5738.00
1710.52,5705.00
1711.67,5931.00
1712.81,5579.00
1713.95,4709.00
1715.09,5212.00
1716.23,5214.00
1717.37,4945.00
1718.51,4483.00
1719.65,4067.00
1720.79,4405.00
1721.93,4423.00
1723.07,3703.00
1724.20,3230.00
1725.34,3290.00
1726.48,3643.00
1727.62,2718.00
1728.75,2910.00
1729.89,2442.00
1731.02,2816.00
1732.16,1587.00
1733.29,1731.00
1734.43,1905.00
1735.56,1711.00
1736.69,1421.00
1737.82,1523.00
1738.96,1420.00
1740.09,1562.00
1741.22,1656.00
1742.35,1711.00
1743.48,701.00
1744.61,2005.00
1745.74,1453.00
1746.87,1261.00
1748.00,1063.00
1749.13,378.00
1750.25,324.00
1751.38,932.00
1752.51,666.00
1753.64,511.00
1754.76,729.00
1755.89,986.00
1757.01,-158.00
1758.14,1117.00
1759.26,301.00
1760.39,113.00
1761.51,241.00
1762.63,759.00
1763.76,762.00
1764.88,942.00
1766.00,657.00
1767.12,401.00
1768.24,334.00
1769.37,110.00
1770.49,-266.00
1771.61,422.00
1772.73,-41.00
1773.85,61.00
1774.96,114.00
1776.08,-153.00
1777.20,-10.00
1778.32,165.00
1779.44,-101.00
1780.55,105.00
1781.67,158.00
1782.78,-259.00
1783.90,118.00
1785.01,38.00
1786.13,767.00
1787.24,186.00
1788.36,625.00
1789.47,598.00
1790.58,-790.00
1791.70,-177.00
1792.81,1008.00
1793.92,-801.00
1795.03,241.00
1796.14,-700.00
1797.26,-57.00
1798.37,-476.00
1799.48,77.00
1800.58,-823.00
1801.69,442.00
1802.80,-404.00
1803.91,397.00
1805.02,-68.00
1806.13,-683.00
1807.23,-241.00
1808.34,-681.00
1809.45,-172.00
1810.55,-134.00
1811.66,311.00
1812.76,356.00
1813.87,702.00
1814.97,202.00
1816.08,-227.00
1817.18,365.00
1818.28,-288.00
1819.39,223.00
1820.49,-186.00
1821.59,-98.00
1822.69,479.00
1823.79,405.00
1824.90,-669.00
1826.00,-627.00
1827.10,0.00
1828.20,-619.00
1829.30,-10.00
1830.39,253.00
1831.49,-339.00
1832.59,-413.00
1833.69,-323.00
1834.79,-163.00
1835.88,-329.00
1836.98,-88.00
1838.08,-336.00
1839.17,-129.00
1840.27,68.00
1841.36,-663.00
1842.46,250.00
1843.55,-298.00
1844.65,-335.00
1845.74,-452.00
1846.83,-170.00
1847.93,23.00
1849.02,49.00
1850.11,-218.00
1851.20,-322.00
1852.30,-244.00
1853.39,-72.00
1854.48,-102.00
1855.57,-52.00
1856.66,10.00
1857.75,-334.00
1858.84,-311.00
1859.93,334.00
1861.01,-11.00
1862.10,-88.00
1863.19,80.00
1864.28,42.00
1865.37,-77.00
1866.45,76.00
1867.54,-93.00
1868.62,145.00
1869.71,-612.00
1870.79,-542.00
1871.88,-268.00
1872.96,-428.00
1874.05,688.00
1875.13,3.00
1876.22,125.00
1877.30,82.00
1878.38,-496.00
1879.46,227.00
1880.55,-843.00
1881.63,103.00
1882.71,10.00
1883.79,324.00
1884.87,23.00
1885.95,260.00
1887.03,86.00
1888.11,270.00
1889.19,-225.00
1890.27,-362.00
1891.35,-507.00
1892.42,385.00
1893.50,-390.00
1894.58,213.00
1895.66,-290.00
1896.73,-661.00
1897.81,119.00
1898.89,276.00
1899.96,-739.00
1901.04,9.00
1902.11,90.00
1903.19,-80.00
1904.26,-145.00
1905.33,104.00
1906.41,57.00
1907.48,-448.00
1908.55,137.00
1909.63,258.00
1910.70,94.00
1911.77,-454.00
1912.84,-311.00
1913.91,84.00
1914.98,-303.00
1916.05,-61.00
1917.12,-412.00
1918.19,29.00
1919.26,-734.00
1920.33,-246.00
1921.40,-159.00
1922.47,-758.00
1923.54,161.00
1924.60,-484.00
1925.67,270.00
1926.74,-627.00
1927.80,-547.00
1928.87,-869.00
1929.94,-612.00
1931.00,-813.00
1932.07,-648.00
1933.13,-645.00
1934.20,-437.00
1935.26,21.00
1936.33,-748.00
1937.39,-52.00
1938.45,-162.00
1939.52,-543.00
1940.58,286.00
1941.64,-377.00
1942.70,-302.00
1943.76,-406.00
1944.83,-703.00
1945.89,-180.00
1946.95,-602.00
1948.01,-813.00
1949.07,-809.00
1950.13,-356.00
1951.19,-647.00
1952.25,-171.00
1953.30,-657.00
1954.36,767.00
1955.42,119.00
1956.48,-1129.00
1957.54,-378.00
1958.59,107.00
1959.65,-392.00
1960.71,-37.00
1961.76,-529.00
1962.82,783.00
1963.87,-538.00
1964.93,-127.00
1965.98,102.00
1967.04,-103.00
1968.09,211.00
1969.15,-587.00
1970.20,-553.00
1971.25,-615.00
1972.31,381.00
1973.36,-510.00
1974.41,98.00
1975.46,-231.00
1976.51,119.00
1977.57,381.00
1978.62,-786.00
1979.67,-156.00
1980.72,-387.00
1981.77,120.00
1982.82,523.00
1983.87,-238.00
1984.92,49.00
1985.96,-43.00
1987.01,49.00
1988.06,-487.00
1989.11,549.00
1990.16,-26.00
1991.20,13.00
1992.25,170.00
1993.30,76.00
1994.34,-723.00
1995.39,-660.00
1996.44,-132.00
1997.48,-1207.00
1998.53,-90.00
1999.57,-265.00
2000.62,-123.00
2001.66,-99.00
2002.70,-359.00
2003.75,-475.00
2004.79,-235.00
2005.83,-113.00
2006.88,-347.00
2007.92,-71.00
2008.96,11.00
2010.00,-52.00
2011.04,188.00
2012.08,-112.00
2013.13,-204.00
2014.17,-416.00
2015.21,-771.00
2016.25,-238.00
2017.29,-216.00
2018.33,-225.00
2019.36,120.00
2020.40,-142.00
2021.44,-330.00
2022.48,-234.00
2023.52,-420.00
2024.56,-461.00
2025.59,136.00
2026.63,-599.00
2027.67,-525.00
2028.70,-434.00
2029.74,-520.00
2030.78,-336.00
2031.81,-602.00
2032.85,35.00
2033.88,-625.00
2034.92,-276.00
2035.95,303.00
2036.98,-296.00
2038.02,270.00
2039.05,459.00
2040.08,-17.00
2041.12,-440.00
2042.15,-647.00
2043.18,37.00
2044.21,-239.00
2045.25,195.00
2046.28,153.00
2047.31,466.00
2048.34,635.00
2049.37,17.00
2050.40,-976.00
2051.43,475.00
2052.46,-796.00
2053.49,-562.00
2054.52,273.00
2055.55,152.00
2056.58,680.00
2057.61,-563.00
2058.63,-138.00
2059.66,-598.00
2060.69,-699.00
2061.72,971.00
2062.74,121.00
2063.77,170.00
2064.80,-108.00
2065.82,-176.00
2066.85,58.00
2067.87,-294.00
2068.90,-370.00
2069.92,-443.00
2070.95,-586.00
2071.97,-483.00
2073.00,-55.00
2074.02,-569.00
2075.05,547.00
2076.07,419.00
2077.09,105.00
2078.12,-348.00
2079.14,-93.00
2080.16,-894.00
2081.18,-2.00
2082.20,-263.00
2083.23,190.00
2084.25,-587.00
2085.27,-145.00
2086.29,-239.00
2087.31,-44.00
2088.33,-280.00
2089.35,-661.00
2090.37,-230.00
2091.39,-294.00
2092.41,-577.00
2093.43,97.00
2094.44,-38.00
2095.46,28.00
2096.48,-81.00
2097.50,-107.00
2098.52,-26.00
2099.53,-197.00
2100.55,-428.00
2101.57,-298.00
2102.58,30.00
2103.60,-53.00
2104.62,139.00
2105.63,59.00
2106.65,-333.00
2107.66,-197.00
2108.68,-890.00
2109.69,-1.00
2110.71,11.00
2111.72,-564.00
2112.73,196.00
2113.75,-1479.00
2114.76,-144.00
2115.77,-673.00
2116.79,-112.00
2117.80,-262.00
2118.81,-187.00
2119.82,-540.00
2120.84,-8.00
2121.85,-154.00
2122.86,-460.00
2123.87,-441.00
2124.88,-455.00
2125.89,83.00
2126.90,-186.00
2127.91,-591.00
2128.92,76.00
2129.93,76.00
2130.94,400.00
2131.95,-393.00
2132.96,-400.00
2133.97,-64.00
2134.97,-406.00
2135.98,-163.00
2136.99,216.00
2138.00,-568.00
2139.01,-610.00
2140.01,372.00
2141.02,500.00
2142.03,-603.00
2143.03,-192.00
2144.04,-795.00
2145.04,-368.00
2146.05,-502.00
2147.06,19.00
2148.06,-310.00
2149.07,-72.00
2150.07,-453.00
2151.07,-503.00
2152.08,245.00
2153.08,116.00
2154.09,164.00
2155.09,-760.00
2156.09,-816.00
2157.10,193.00
2158.10,-817.00
2159.10,-336.00
2160.10,-282.00
2161.11,-552.00
2162.11,-727.00
2163.11,-687.00
2164.11,-644.00
2165.11,-438.00
2166.11,-446.00
2167.11,368.00
2168.11,-558.00
2169.11,-576.00
2170.11,-55.00
2171.11,280.00
2172.11,-389.00
2173.11,180.00
2174.11,-428.00
2175.11,-207.00
2176.11,-873.00
2177.11,-28.00
2178.10,322.00
2179.10,-152.00
2180.10,-203.00
2181.10,-275.00
2182.09,-81.00
2183.09,-93.00
2184.09,119.00
2185.08,-413.00
2186.08,88.00
2187.08,126.00
2188.07,-116.00
2189.07,213.00
2190.06,-197.00
2191.06,-315.00
2192.05,-169.00
2193.05,322.00
2194.04,-290.00
2195.04,161.00
2196.03,-504.00
2197.02,-728.00
2198.02,119.00
2199.01,175.00
2200.00,-647.00
2201.00,-183.00
2201.99,-164.00
2202.98,-961.00
2203.97,-375.00
2204.97,-235.00
2205.96,-230.00
2206.95,-148.00
2207.94,-710.00
2208.93,-478.00
2209.92,-52.00
2210.91,-730.00
2211.90,204.00
2212.89,-366.00
2213.88,-616.00
2214.87,165.00
2215.86,395.00
2216.85,520.00
2217.84,157.00
2218.83,-164.00
2219.82,508.00
2220.81,-904.00
2221.80,-24.00
2222.78,-485.00
2223.77,198.00
2224.76,-333.00
2225.75,-250.00
2226.73,-292.00
2227.72,19.00
2228.71,-464.00
2229.70,8.00
2230.68,-516.00
2231.67,-409.00
2232.65,128.00
2233.64,-32.00
2234.63,507.00
2235.61,-592.00
2236.60,-128.00
2237.58,342.00
2238.57,-469.00
2239.55,162.00
2240.53,-84.00
2241.52,-363.00
2242.50,-534.00
2243.49,-255.00
2244.47,-551.00
2245.45,-688.00
2246.44,-373.00
2247.42,-140.00
2248.40,-541.00
2249.38,349.00
2250.37,302.00
2251.35,-89.00
2252.33,62.00
2253.31,-710.00
2254.29,-516.00
2255.28,-139.00
2256.26,403.00
2257.24,-446.00
2258.22,-657.00
2259.20,-243.00
2260.18,-666.00
2261.16,-206.00
2262.14,-523.00
2263.12,-504.00
2264.10,-364.00
2265.08,-1356.00
2266.06,-506.00
2267.04,-530.00
2268.01,-641.00
2268.99,-958.00
2269.97,-532.00
2270.95,254.00
2271.93,-736.00
2272.90,63.00
2273.88,-657.00
2274.86,-125.00
2275.84,-126.00
2276.81,-287.00
2277.79,93.00
2278.77,311.00
2279.74,-631.00
2280.72,-684.00
2281.70,237.00
2282.67,-746.00
2283.65,-695.00
2284.62,-618.00
2285.60,-307.00
2286.57,726.00
2287.55,349.00
2288.52,33.00
2289.50,-38.00
2290.47,-196.00
2291.45,68.00
2292.42,-564.00
2293.39,-808.00
2294.37,271.00
2295.34,-489.00
2296.31,-133.00
2297.29,11.00
2298.26,120.00
2299.23,-89.00
2300.21,-53.00
2301.18,202.00
2302.15,-414.00
2303.12,414.00
2304.09,-111.00
2305.07,-109.00
2306.04,-269.00
2307.01,-379.00
2307.98,-574.00
2308.95,82.00
2309.92,-359.00
2310.89,125.00
2311.86,-61.00
2312.83,128.00
2313.80,9.00
2314.77,-193.00
2315.74,-608.00
2316.71,-446.00
2317.68,393.00
2318.65,-404.00
2319.62,419.00
2320.59,-448.00
2321.56,-110.00
2322.53,-15.00
2323.49,-380.00
2324.46,-305.00
2325.43,-951.00
2326.40,164.00
2327.36,-449.00
2328.33,-173.00
2329.30,-535.00
2330.27,506.00
2331.23,584.00
2332.20,-452.00
2333.17,-532.00
2334.13,175.00
2335.10,-667.00
2336.07,12.00
2337.03,-322.00
2338.00,-509.00
2338.96,-378.00
2339.93,-132.00
2340.89,356.00
2341.86,-47.00
2342.82,130.00
2343.79,443.00
2344.75,-359.00
2345.72,321.00
2346.68,-96.00
2347.64,940.00
2348.61,23.00
2349.57,-58.00
2350.54,-174.00
2351.50,-261.00
2352.46,304.00
2353.43,401.00
2354.39,35.00
2355.35,-255.00
2356.31,-493.00
2357.28,-369.00
2358.24,187.00
2359.20,194.00
2360.16,-756.00
2361.12,-365.00
2362.09,-664.00
2363.05,137.00
2364.01,-541.00
2364.97,-8.00
2365.93,124.00
2366.89,-356.00
2367.85,-953.00
2368.81,424.00
2369.77,-25.00
2370.73,-673.00
2371.69,-205.00
2372.65,-224.00
2373.61,-35.00
2374.57,-35.00
2375.53,-436.00
2376.49,-273.00
2377.45,-362.00
2378.41,-294.00
2379.37,-165.00
2380.33,-126.00
2381.29,-935.00
2382.24,-89.00
2383.20,515.00
2384.16,-117.00
2385.12,-1028.00
2386.08,-442.00
2387.03,75.00
2387.99,-852.00
2388.95,-241.00
2389.91,-209.00
2390.86,172.00
2391.82,-309.00
2392.78,326.00
2393.73,-240.00
2394.69,-55.00
2395.65,-218.00
2396.60,-34.00
2397.56,-601.00
2398.51,-28.00
2399.47,-817.00
2400.43,305.00
2401.38,-501.00
2402.34,-289.00
2403.29,-427.00
2404.25,-236.00
2405.20,130.00
2406.16,-221.00
2407.11,-1110.00
2408.07,-280.00
2409.02,-409.00
2409.97,-970.00
2410.93,-65.00
2411.88,149.00
2412.84,626.00
2413.79,-545.00
2414.74,-485.00
2415.70,-573.00
2416.65,-195.00
2417.60,-401.00
2418.55,-393.00
2419.51,-554.00
2420.46,-289.00
2421.41,623.00
2422.37,-71.00
2423.32,-115.00
2424.27,312.00
2425.22,-223.00
2426.17,-401.00
2427.12,-365.00
2428.08,-1007.00
2429.03,-1062.00
2429.98,-26.00
2430.93,-278.00
2431.88,-352.00
2432.83,-159.00
2433.78,117.00
2434.73,667.00
2435.68,52.00
2436.63,-546.00
2437.58,-448.00
2438.53,76.00
2439.48,-105.00
2440.43,-176.00
2441.38,71.00
2442.33,-1153.00
2443.28,-375.00
2444.23,-268.00
2445.18,264.00
2446.13,-350.00
2447.08,-139.00
2448.03,-342.00
2448.98,767.00
2449.92,509.00
2450.87,-758.00
2451.82,-294.00
2452.77,-678.00
2453.72,-355.00
2454.67,-3.00
2455.61,-93.00
2456.56,309.00
2457.51,17.00
2458.46,136.00
2459.40,-169.00
2460.35,-363.00
2461.30,-378.00
2462.24,-19.00
2463.19,-38.00
2464.14,125.00
2465.08,-243.00
2466.03,-510.00
2466.98,-912.00
2467.92,-327.00
2468.87,274.00
2469.81,113.00
2470.76,219.00
2471.71,-113.00
2472.65,453.00
2473.60,-525.00
2474.54,43.00
2475.49,-88.00
2476.43,-751.00
2477.38,-257.00
2478.32,145.00
2479.27,-193.00
2480.21,-245.00
2481.16,-203.00
2482.10,128.00
2483.05,-60.00
2483.99,-292.00
2484.93,-1026.00
2485.88,358.00
2486.82,-811.00
2487.76,82.00
2488.71,-177.00
2489.65,719.00
2490.60,-385.00
2491.54,-512.00
2492.48,-298.00
2493.42,500.00
2494.37,-139.00
2495.31,-483.00
2496.25,-707.00
2497.20,207.00
2498.14,-460.00
2499.08,-305.00
2500.02,-616.00
2500.96,232.00
2501.91,-240.00
2502.85,11.00
2503.79,91.00
2504.73,-211.00
2505.67,-676.00
2506.62,-388.00
2507.56,259.00
2508.50,236.00
2509.44,-180.00
2510.38,8.00
2511.32,-145.00
2512.26,479.00
2513.20,-27.00
2514.14,-154.00
2515.08,-670.00
2516.02,-281.00
2516.96,-88.00
2517.91,52.00
2518.85,-240.00
2519.79,-82.00
2520.73,-236.00
2521.66,-134.00
2522.60,-1088.00
2523.54,-125.00
2524.48,-108.00
2525.42,89.00
2526.36,-511.00
2527.30,34.00
2528.24,-84.00
2529.18,-407.00
2530.12,-484.00
2531.06,-337.00
2532.00,-192.00
2532.93,-40.00
2533.87,-61.00
2534.81,394.00
2535.75,-429.00
2536.69,115.00
2537.63,-831.00
2538.56,190.00
2539.50,-70.00
2540.44,720.00
2541.38,-313.00
2542.32,-161.00
2543.25,-199.00
2544.19,175.00
2545.13,-403.00
2546.07,-144.00
2547.00,-187.00
2547.94,-218.00
2548.88,-259.00
2549.81,-154.00
2550.75,-21.00
2551.69,-634.00
2552.62,-90.00
2553.56,-157.00
2554.50,-285.00
2555.43,-376.00
2556.37,204.00
2557.30,-203.00
2558.24,-13.00
2559.18,-574.00
2560.11,-260.00
2561.05,-234.00
2561.98,33.00
2562.92,-674.00
2563.86,-135.00
2564.79,-562.00
2565.73,-601.00
2566.66,-615.00
2567.60,-791.00
2568.53,-1036.00
2569.47,-225.00
2570.40,-145.00
2571.34,-171.00
2572.27,-370.00
2573.21,-277.00
2574.14,-369.00
2575.07,-295.00
2576.01,126.00
2576.94,468.00
2577.88,-145.00
2578.81,-382.00
2579.75,-501.00
2580.68,-51.00
2581.61,-311.00
2582.55,-174.00
2583.48,-217.00
2584.42,92.00
2585.35,33.00
2586.28,-629.00
2587.22,-79.00
2588.15,-234.00
2589.08,112.00
2590.02,256.00
2590.95,291.00
2591.88,6.00
2592.81,-239.00
2593.75,-240.00
2594.68,-179.00
2595.61,-207.00
2596.55,-595.00
2597.48,-708.00
2598.41,-182.00
2599.34,-612.00
2600.28,-376.00
2601.21,-83.00
2602.14,-719.00
2603.07,-66.00
2604.00,262.00
2604.94,466.00
2605.87,-173.00
2606.80,11.00
2607.73,446.00
2608.66,-273.00
2609.59,-411.00
2610.53,-313.00
2611.46,15.00
2612.39,666.00
2613.32,30.00
2614.25,-701.00
2615.18,-373.00
2616.11,-277.00
2617.04,-142.00
2617.97,-229.00
2618.91,-340.00
2619.84,-395.00
2620.77,-560.00
2621.70,-157.00
2622.63,-67.00
2623.56,-692.00
2624.49,-1271.00
2625.42,116.00
2626.35,679.00
2627.28,-31.00
2628.21,-209.00
2629.14,446.00
2630.07,251.00
2631.00,-8.00
2631.93,406.00
2632.86,-46.00
2633.79,-470.00
2634.72,47.00
2635.65,-559.00
2636.58,-168.00
2637.51,-717.00
2638.44,-371.00
2639.37,-68.00
2640.30,-130.00
2641.23,-184.00
2642.15,-208.00
2643.08,-332.00
2644.01,-326.00
2644.94,158.00
2645.87,-401.00
2646.80,299.00
2647.73,-300.00
2648.66,-473.00
2649.59,-109.00
2650.51,-12.00
2651.44,-55.00
2652.37,-488.00
2653.30,-411.00
2654.23,-190.00
2655.16,123.00
2656.08,191.00
2657.01,-438.00
2657.94,-337.00
2658.87,-715.00
2659.80,-159.00
2660.72,-214.00
2661.65,-214.00
2662.58,-856.00
2663.51,-118.00
2664.44,-320.00
2665.36,758.00
2666.29,-96.00
2667.22,171.00
2668.15,-179.00
2669.07,84.00
2670.00,-1073.00
2670.93,-707.00
2671.86,311.00
2672.78,-658.00
2673.71,36.00
2674.64,0.00
2675.56,0.00
2676.49,0.00
2677.42,0.00
2678.35,0.00
