ENLIGHTEN Version,1.6.8
Measurement ID,20190528-125214-021018-WP-00193
Serial Number,WP-00193
Label,BMSB
Integration Time,5
Timestamp,2019-05-28 12:52:14.021018
Note,
Temperature,-99
CCD C0,536.9577026367188
CCD C1,0.11947000026702881
CCD C2,-1.3838999620929826e-05
CCD C3,-3.2027001051204707e-09
CCD Offset,0
CCD Gain,1.9
Laser Wavelength,532.0
Laser Enable,False
Laser Power,100.0
Laser Temperature,-99
Pixel Count,1024

Wavenumber,Processed
173.55,3.00
177.69,16.00
181.83,5.00
185.97,16.00
190.10,0.00
194.23,-12.00
198.36,-3.00
202.49,15.00
206.61,10.00
210.73,-4.00
214.85,0.00
218.96,8.00
223.07,21.00
227.18,8.00
231.29,0.00
235.39,-12.00
239.49,-4.00
243.59,6.00
247.68,2.00
251.78,11.00
255.87,21.00
259.95,6.00
264.04,31.00
268.12,16.00
272.19,-8.00
276.27,35.00
280.34,36.00
284.41,55.00
288.48,42.00
292.54,91.00
296.61,93.00
300.67,108.00
304.72,158.00
308.78,164.00
312.83,239.00
316.87,280.00
320.92,333.00
324.96,375.00
329.00,475.00
333.04,554.00
337.07,647.00
341.10,703.00
345.13,778.00
349.16,807.00
353.18,877.00
357.20,949.00
361.22,965.00
365.24,1086.00
369.25,1175.00
373.26,1257.00
377.27,1315.00
381.27,1314.00
385.27,1347.00
389.27,1244.00
393.27,1187.00
397.26,1106.00
401.25,1059.00
405.24,1098.00
409.22,1117.00
413.21,1102.00
417.19,1113.00
421.16,1118.00
425.14,1100.00
429.11,1101.00
433.08,1111.00
437.05,1104.00
441.01,1130.00
444.97,1181.00
448.93,1270.00
452.89,1379.00
456.84,1457.00
460.79,1473.00
464.74,1385.00
468.68,1295.00
472.62,1193.00
476.56,1182.00
480.50,1222.00
484.44,1210.00
488.37,1216.00
492.30,1180.00
496.22,1223.00
500.15,1239.00
504.07,1238.00
507.99,1291.00
511.90,1309.00
515.81,1300.00
519.72,1320.00
523.63,1331.00
527.54,1292.00
531.44,1311.00
535.34,1320.00
539.24,1326.00
543.13,1303.00
547.02,1305.00
550.91,1349.00
554.80,1398.00
558.68,1400.00
562.56,1413.00
566.44,1490.00
570.32,1492.00
574.19,1466.00
578.06,1419.00
581.93,1444.00
585.80,1442.00
589.66,1444.00
593.52,1466.00
597.38,1449.00
601.23,1500.00
605.09,1553.00
608.94,1551.00
612.78,1516.00
616.63,1555.00
620.47,1634.00
624.31,1593.00
628.15,1699.00
631.98,1729.00
635.81,1880.00
639.64,2087.00
643.47,2165.00
647.29,2109.00
651.11,2018.00
654.93,1868.00
658.75,1721.00
662.56,1714.00
666.37,1661.00
670.18,1709.00
673.99,1697.00
677.79,1666.00
681.59,1701.00
685.39,1727.00
689.18,1754.00
692.97,1738.00
696.77,1754.00
700.55,1802.00
704.34,1821.00
708.12,1820.00
711.90,1857.00
715.68,1764.00
719.45,1783.00
723.22,1803.00
726.99,1845.00
730.76,1828.00
734.53,1839.00
738.29,1876.00
742.05,1855.00
745.80,1862.00
749.56,1943.00
753.31,1934.00
757.06,2043.00
760.80,2079.00
764.55,2083.00
768.29,2058.00
772.03,2035.00
775.77,2114.00
779.50,2146.00
783.23,2199.00
786.96,2129.00
790.69,2085.00
794.41,2041.00
798.13,2014.00
801.85,1935.00
805.57,2087.00
809.28,2066.00
812.99,2093.00
816.70,2110.00
820.40,2184.00
824.11,2237.00
827.81,2288.00
831.51,2414.00
835.20,2576.00
838.90,2719.00
842.59,2863.00
846.28,2857.00
849.96,2794.00
853.65,2692.00
857.33,2644.00
861.00,2578.00
864.68,2517.00
868.35,2397.00
872.02,2302.00
875.69,2290.00
879.36,2323.00
883.02,2353.00
886.68,2266.00
890.34,2279.00
894.00,2236.00
897.65,2199.00
901.30,2205.00
904.95,2220.00
908.59,2216.00
912.24,2229.00
915.88,2191.00
919.52,2235.00
923.15,2227.00
926.79,2197.00
930.42,2279.00
934.05,2353.00
937.67,2414.00
941.30,2547.00
944.92,2793.00
948.54,2958.00
952.15,2977.00
955.77,2991.00
959.38,2976.00
962.99,2960.00
966.59,3162.00
970.20,3457.00
973.80,3671.00
977.40,3757.00
980.99,3496.00
984.59,3258.00
988.18,2970.00
991.77,2650.00
995.35,2591.00
998.94,2493.00
1002.52,2483.00
1006.10,2412.00
1009.67,2382.00
1013.25,2496.00
1016.82,2420.00
1020.39,2420.00
1023.96,2446.00
1027.52,2530.00
1031.08,2501.00
1034.64,2631.00
1038.20,2789.00
1041.76,2926.00
1045.31,3211.00
1048.86,3392.00
1052.41,3377.00
1055.95,3319.00
1059.49,3110.00
1063.03,2920.00
1066.57,2793.00
1070.11,2759.00
1073.64,2665.00
1077.17,2570.00
1080.70,2599.00
1084.22,2599.00
1087.75,2698.00
1091.27,2775.00
1094.79,2933.00
1098.30,3209.00
1101.82,3572.00
1105.33,3721.00
1108.84,3559.00
1112.34,3284.00
1115.85,2903.00
1119.35,2728.00
1122.85,2705.00
1126.35,2676.00
1129.84,2686.00
1133.33,2676.00
1136.82,2683.00
1140.31,2719.00
1143.79,2797.00
1147.28,2829.00
1150.76,2932.00
1154.23,3236.00
1157.71,3681.00
1161.18,4109.00
1164.65,4904.00
1168.12,6382.00
1171.59,9645.00
1175.05,13973.00
1178.51,17268.00
1181.97,18455.00
1185.43,16339.00
1188.88,11985.00
1192.33,8163.00
1195.78,6332.00
1199.23,7307.00
1202.67,9495.00
1206.11,10309.00
1209.55,9883.00
1212.99,8096.00
1216.43,5519.00
1219.86,3986.00
1223.29,3452.00
1226.72,3297.00
1230.14,3222.00
1233.57,3248.00
1236.99,3199.00
1240.40,3086.00
1243.82,3002.00
1247.23,2948.00
1250.65,2869.00
1254.06,2818.00
1257.46,2920.00
1260.87,2941.00
1264.27,3061.00
1267.67,3118.00
1271.07,3078.00
1274.46,3186.00
1277.85,3249.00
1281.24,3552.00
1284.63,4156.00
1288.02,4940.00
1291.40,5346.00
1294.78,5460.00
1298.16,5164.00
1301.54,4703.00
1304.91,4680.00
1308.28,5327.00
1311.65,6287.00
1315.02,7381.00
1318.38,7914.00
1321.75,7944.00
1325.11,7292.00
1328.46,6819.00
1331.82,6711.00
1335.17,6373.00
1338.52,5968.00
1341.87,5212.00
1345.22,4090.00
1348.56,3350.00
1351.90,3052.00
1355.24,2948.00
1358.58,2971.00
1361.92,2861.00
1365.25,2859.00
1368.58,2924.00
1371.91,2913.00
1375.23,2946.00
1378.55,2941.00
1381.88,2848.00
1385.19,2819.00
1388.51,2823.00
1391.82,2785.00
1395.14,2766.00
1398.45,2746.00
1401.75,2817.00
1405.06,2781.00
1408.36,2770.00
1411.66,2762.00
1414.96,2811.00
1418.25,2851.00
1421.55,2842.00
1424.84,2854.00
1428.13,2905.00
1431.41,2993.00
1434.70,3160.00
1437.98,3198.00
1441.26,3215.00
1444.54,3282.00
1447.81,3371.00
1451.09,3401.00
1454.36,3530.00
1457.63,3599.00
1460.89,3517.00
1464.16,3436.00
1467.42,3316.00
1470.68,3141.00
1473.93,3188.00
1477.19,3255.00
1480.44,3316.00
1483.69,3323.00
1486.94,3325.00
1490.19,3232.00
1493.43,3070.00
1496.67,3015.00
1499.91,2994.00
1503.15,3072.00
1506.38,3176.00
1509.61,3149.00
1512.84,3182.00
1516.07,3301.00
1519.30,3293.00
1522.52,3362.00
1525.74,3332.00
1528.96,3281.00
1532.18,3213.00
1535.39,3284.00
1538.60,3360.00
1541.81,3628.00
1545.02,4288.00
1548.23,5502.00
1551.43,7402.00
1554.63,8825.00
1557.83,9181.00
1561.03,8732.00
1564.22,7431.00
1567.41,6278.00
1570.60,5981.00
1573.79,6584.00
1576.98,8376.00
1580.16,11690.00
1583.34,17414.00
1586.52,27236.00
1589.70,38949.00
1592.87,45700.00
1596.04,45479.00
1599.21,38869.00
1602.38,27276.00
1605.55,16583.00
1608.71,10561.00
1611.87,8115.00
1615.03,7803.00
1618.19,9186.00
1621.34,13202.00
1624.50,18985.00
1627.65,22402.00
1630.79,22467.00
1633.94,19381.00
1637.08,13815.00
1640.22,8201.00
1643.36,5469.00
1646.50,4465.00
1649.64,3942.00
1652.77,3675.00
1655.90,3474.00
1659.03,3304.00
1662.15,3152.00
1665.28,3091.00
1668.40,2962.00
1671.52,2909.00
1674.64,2884.00
1677.75,2901.00
1680.86,2871.00
1683.97,2918.00
1687.08,2894.00
1690.19,2848.00
1693.29,2854.00
1696.40,2856.00
1699.50,2846.00
1702.59,2787.00
1705.69,2874.00
1708.78,2863.00
1711.87,2932.00
1714.96,2888.00
1718.05,2888.00
1721.13,2830.00
1724.22,2840.00
1727.30,2865.00
1730.38,2867.00
1733.45,2867.00
1736.53,2911.00
1739.60,2899.00
1742.67,2899.00
1745.73,2960.00
1748.80,2878.00
1751.86,2853.00
1754.92,2812.00
1757.98,2757.00
1761.04,2754.00
1764.09,2773.00
1767.15,2711.00
1770.20,2714.00
1773.25,2726.00
1776.29,2745.00
1779.34,2762.00
1782.38,2728.00
1785.42,2720.00
1788.45,2666.00
1791.49,2666.00
1794.52,2610.00
1797.55,2631.00
1800.58,2580.00
1803.61,2580.00
1806.63,2659.00
1809.66,2608.00
1812.68,2581.00
1815.70,2597.00
1818.71,2589.00
1821.73,2606.00
1824.74,2587.00
1827.75,2496.00
1830.75,2546.00
1833.76,2542.00
1836.76,2513.00
1839.77,2524.00
1842.76,2483.00
1845.76,2550.00
1848.76,2490.00
1851.75,2547.00
1854.74,2507.00
1857.73,2518.00
1860.72,2495.00
1863.70,2466.00
1866.68,2462.00
1869.66,2502.00
1872.64,2510.00
1875.62,2521.00
1878.59,2500.00
1881.56,2481.00
1884.53,2503.00
1887.50,2572.00
1890.46,2529.00
1893.43,2551.00
1896.39,2477.00
1899.35,2515.00
1902.31,2530.00
1905.26,2564.00
1908.21,2547.00
1911.16,2499.00
1914.11,2546.00
1917.06,2556.00
1920.00,2496.00
1922.95,2524.00
1925.89,2539.00
1928.82,2555.00
1931.76,2521.00
1934.70,2498.00
1937.63,2507.00
1940.56,2491.00
1943.48,2532.00
1946.41,2489.00
1949.33,2479.00
1952.26,2492.00
1955.18,2508.00
1958.09,2511.00
1961.01,2500.00
1963.92,2492.00
1966.83,2424.00
1969.74,2517.00
1972.65,2450.00
1975.55,2413.00
1978.46,2464.00
1981.36,2496.00
1984.26,2486.00
1987.15,2471.00
1990.05,2481.00
1992.94,2451.00
1995.83,2490.00
1998.72,2448.00
2001.61,2388.00
2004.49,2423.00
2007.37,2471.00
2010.25,2486.00
2013.13,2437.00
2016.01,2490.00
2018.88,2460.00
2021.75,2488.00
2024.63,2479.00
2027.49,2479.00
2030.36,2475.00
2033.22,2458.00
2036.08,2488.00
2038.94,2471.00
2041.80,2454.00
2044.66,2485.00
2047.51,2503.00
2050.36,2511.00
2053.21,2533.00
2056.06,2427.00
2058.91,2414.00
2061.75,2494.00
2064.59,2477.00
2067.43,2457.00
2070.27,2452.00
2073.10,2422.00
2075.94,2466.00
2078.77,2433.00
2081.60,2433.00
2084.43,2449.00
2087.25,2453.00
2090.07,2442.00
2092.89,2426.00
2095.71,2433.00
2098.53,2422.00
2101.35,2403.00
2104.16,2395.00
2106.97,2408.00
2109.78,2431.00
2112.59,2431.00
2115.39,2370.00
2118.19,2420.00
2121.00,2398.00
2123.79,2397.00
2126.59,2366.00
2129.39,2368.00
2132.18,2343.00
2134.97,2340.00
2137.76,2385.00
2140.55,2329.00
2143.33,2351.00
2146.11,2400.00
2148.90,2347.00
2151.67,2364.00
2154.45,2370.00
2157.23,2340.00
2160.00,2315.00
2162.77,2379.00
2165.54,2308.00
2168.31,2300.00
2171.07,2338.00
2173.83,2334.00
2176.59,2303.00
2179.35,2355.00
2182.11,2353.00
2184.87,2302.00
2187.62,2369.00
2190.37,2311.00
2193.12,2304.00
2195.87,2289.00
2198.61,2317.00
2201.35,2291.00
2204.09,2343.00
2206.83,2349.00
2209.57,2279.00
2212.31,2321.00
2215.04,2332.00
2217.77,2298.00
2220.50,2285.00
2223.23,2342.00
2225.95,2278.00
2228.68,2281.00
2231.40,2266.00
2234.12,2311.00
2236.83,2340.00
2239.55,2354.00
2242.26,2319.00
2244.97,2292.00
2247.68,2319.00
2250.39,2325.00
2253.10,2292.00
2255.80,2253.00
2258.50,2292.00
2261.20,2294.00
2263.90,2286.00
2266.59,2282.00
2269.29,2297.00
2271.98,2277.00
2274.67,2325.00
2277.36,2338.00
2280.04,2256.00
2282.73,2279.00
2285.41,2247.00
2288.09,2266.00
2290.77,2233.00
2293.44,2193.00
2296.12,2255.00
2298.79,2260.00
2301.46,2260.00
2304.13,2222.00
2306.80,2224.00
2309.46,2282.00
2312.12,2246.00
2314.78,2239.00
2317.44,2236.00
2320.10,2254.00
2322.75,2231.00
2325.41,2205.00
2328.06,2225.00
2330.71,2253.00
2333.35,2237.00
2336.00,2275.00
2338.64,2222.00
2341.28,2250.00
2343.92,2212.00
2346.56,2224.00
2349.19,2223.00
2351.83,2245.00
2354.46,2258.00
2357.09,2245.00
2359.72,2319.00
2362.34,2319.00
2364.97,2298.00
2367.59,2269.00
2370.21,2260.00
2372.83,2239.00
2375.44,2220.00
2378.06,2262.00
2380.67,2235.00
2383.28,2239.00
2385.89,2226.00
2388.49,2246.00
2391.10,2233.00
2393.70,2222.00
2396.30,2249.00
2398.90,2231.00
2401.50,2165.00
2404.09,2142.00
2406.68,2179.00
2409.28,2145.00
2411.87,2143.00
2414.45,2194.00
2417.04,2157.00
2419.62,2228.00
2422.20,2180.00
2424.78,2133.00
2427.36,2178.00
2429.94,2139.00
2432.51,2201.00
2435.08,2163.00
2437.65,2137.00
2440.22,2121.00
2442.79,2180.00
2445.35,2161.00
2447.92,2163.00
2450.48,2158.00
2453.03,2138.00
2455.59,2186.00
2458.15,2157.00
2460.70,2100.00
2463.25,2170.00
2465.80,2168.00
2468.35,2186.00
2470.89,2146.00
2473.44,2181.00
2475.98,2155.00
2478.52,2160.00
2481.06,2157.00
2483.59,2106.00
2486.13,2127.00
2488.66,2194.00
2491.19,2163.00
2493.72,2136.00
2496.25,2190.00
2498.77,2180.00
2501.29,2210.00
2503.82,2161.00
2506.33,2136.00
2508.85,2119.00
2511.37,2119.00
2513.88,2090.00
2516.39,2060.00
2518.90,2032.00
2521.41,2069.00
2523.92,2066.00
2526.42,2051.00
2528.92,2058.00
2531.42,2047.00
2533.92,2031.00
2536.42,2049.00
2538.91,2077.00
2541.41,2029.00
2543.90,2036.00
2546.39,2009.00
2548.88,2013.00
2551.36,1984.00
2553.84,2011.00
2556.33,2014.00
2558.81,2054.00
2561.28,2035.00
2563.76,2005.00
2566.24,2039.00
2568.71,2057.00
2571.18,2064.00
2573.65,2002.00
2576.11,1992.00
2578.58,2066.00
2581.04,2056.00
2583.50,2053.00
2585.96,2045.00
2588.42,2066.00
2590.88,2093.00
2593.33,2047.00
2595.78,2026.00
2598.23,2064.00
2600.68,1996.00
2603.13,1994.00
2605.58,2009.00
2608.02,1950.00
2610.46,1961.00
2612.90,1976.00
2615.34,1982.00
2617.77,1922.00
2620.21,1939.00
2622.64,1933.00
2625.07,1910.00
2627.50,1916.00
2629.92,1921.00
2632.35,1889.00
2634.77,1915.00
2637.19,1919.00
2639.61,1915.00
2642.03,1909.00
2644.44,1897.00
2646.86,1904.00
2649.27,1874.00
2651.68,1852.00
2654.09,1838.00
2656.49,1895.00
2658.90,1893.00
2661.30,1836.00
2663.70,1825.00
2666.10,1828.00
2668.50,1843.00
2670.89,1830.00
2673.29,1834.00
2675.68,1846.00
2678.07,1771.00
2680.46,1841.00
2682.84,1834.00
2685.23,1805.00
2687.61,1775.00
2689.99,1826.00
2692.37,1840.00
2694.75,1813.00
2697.12,1794.00
2699.50,1828.00
2701.87,1800.00
2704.24,1811.00
2706.61,1757.00
2708.97,1787.00
2711.34,1792.00
2713.70,1764.00
2716.06,1785.00
2718.42,1735.00
2720.78,1747.00
2723.13,1802.00
2725.49,1784.00
2727.84,1786.00
2730.19,1808.00
2732.54,1851.00
2734.88,1887.00
2737.23,1838.00
2739.57,1832.00
2741.91,1785.00
2744.25,1773.00
2746.59,1767.00
2748.93,1765.00
2751.26,1739.00
2753.59,1824.00
2755.92,1837.00
2758.25,1841.00
2760.58,1857.00
2762.90,1898.00
2765.23,1986.00
2767.55,2051.00
2769.87,2057.00
2772.18,2037.00
2774.50,2081.00
2776.81,1999.00
2779.13,1910.00
2781.44,1876.00
2783.75,1834.00
2786.05,1786.00
2788.36,1765.00
2790.66,1789.00
2792.96,1771.00
2795.26,1799.00
2797.56,1834.00
2799.86,1883.00
2802.15,1876.00
2804.45,1921.00
2806.74,1887.00
2809.03,1914.00
2811.32,1891.00
2813.60,1805.00
2815.89,1771.00
2818.17,1745.00
2820.45,1771.00
2822.73,1714.00
2825.00,1697.00
2827.28,1714.00
2829.55,1718.00
2831.82,1742.00
2834.09,1695.00
2836.36,1702.00
2838.63,1764.00
2840.89,1712.00
2843.16,1665.00
2845.42,1671.00
2847.68,1646.00
2849.93,1672.00
2852.19,1634.00
2854.44,1670.00
2856.70,1689.00
2858.95,1677.00
2861.20,1693.00
2863.44,1684.00
2865.69,1636.00
2867.93,1670.00
2870.17,1640.00
2872.41,1660.00
2874.65,1653.00
2876.89,1653.00
2879.12,1625.00
2881.35,1693.00
2883.59,1686.00
2885.82,1666.00
2888.04,1661.00
2890.27,1682.00
2892.49,1706.00
2894.72,1655.00
2896.94,1646.00
2899.16,1664.00
2901.37,1674.00
2903.59,1668.00
2905.80,1667.00
2908.01,1725.00
2910.22,1756.00
2912.43,1762.00
2914.64,1758.00
2916.84,1785.00
2919.05,1789.00
2921.25,1809.00
2923.45,1824.00
2925.65,1775.00
2927.84,1750.00
2930.04,1755.00
2932.23,1710.00
2934.42,1630.00
2936.61,1615.00
2938.80,1636.00
2940.99,1598.00
2943.17,1581.00
2945.35,1568.00
2947.53,1583.00
2949.71,1592.00
2951.89,1595.00
2954.06,1585.00
2956.24,1543.00
2958.41,1590.00
2960.58,1550.00
2962.75,1510.00
2964.92,1543.00
2967.08,1563.00
2969.25,1503.00
2971.41,1568.00
2973.57,1556.00
2975.73,1511.00
2977.88,1551.00
2980.04,1583.00
2982.19,1503.00
2984.34,1531.00
2986.49,1553.00
2988.64,1513.00
2990.79,1503.00
2992.93,1500.00
2995.07,1478.00
2997.21,1491.00
2999.35,1508.00
3001.49,1509.00
3003.63,1476.00
3005.76,1495.00
3007.89,1480.00
3010.03,1442.00
3012.15,1486.00
3014.28,1489.00
3016.41,1480.00
3018.53,1575.00
3020.65,1575.00
3022.77,1583.00
3024.89,1588.00
3027.01,1594.00
3029.13,1523.00
3031.24,1528.00
3033.35,1509.00
3035.46,1459.00
3037.57,1518.00
3039.68,1554.00
3041.78,1523.00
3043.89,1603.00
3045.99,1646.00
3048.09,1668.00
3050.19,1657.00
3052.29,1655.00
3054.38,1626.00
3056.47,1638.00
3058.57,1678.00
3060.66,1629.00
3062.74,1575.00
3064.83,1579.00
3066.92,1558.00
3069.00,1495.00
3071.08,1453.00
3073.16,1405.00
3075.24,1351.00
3077.31,1312.00
3079.39,1290.00
3081.46,1262.00
3083.53,1265.00
3085.60,1261.00
3087.67,1203.00
3089.74,1189.00
3091.80,1227.00
3093.87,1202.00
3095.93,1227.00
3097.99,1173.00
3100.05,1175.00
3102.10,1162.00
3104.16,1170.00
3106.21,1178.00
3108.26,1144.00
3110.31,1178.00
3112.36,1151.00
3114.40,1166.00
3116.45,1178.00
3118.49,1151.00
3120.53,1138.00
3122.57,1113.00
3124.61,1151.00
3126.65,1096.00
3128.68,1104.00
3130.71,1103.00
3132.74,1107.00
3134.77,1099.00
3136.80,1111.00
3138.83,1107.00
3140.85,1122.00
3142.88,1160.00
3144.90,1120.00
3146.92,1077.00
3148.93,1138.00
3150.95,1170.00
3152.96,1147.00
3154.98,1113.00
3156.99,1121.00
3159.00,1132.00
3161.01,1126.00
3163.01,1121.00
3165.02,1056.00
3167.02,1088.00
3169.02,1151.00
3171.02,1122.00
3173.02,1111.00
3175.01,1138.00
3177.01,1164.00
3179.00,1229.00
3180.99,1311.00
3182.98,1317.00
3184.97,1362.00
3186.96,1427.00
3188.94,1381.00
3190.92,1322.00
3192.90,1288.00
3194.88,1242.00
3196.86,1187.00
3198.84,1196.00
3200.81,1102.00
3202.79,1029.00
