ENLIGHTEN Version,1.6.8
Measurement ID,20190528-103251-266018-SIGD-0003
Serial Number,SIGD-0003
Label,BMSB
Integration Time,7
Timestamp,2019-05-28 10:32:51.266018
Note,
Temperature,-99
CCD C0,613.8702392578125
CCD C1,0.10380711406469345
CCD C2,-1.9689399778144434e-05
CCD C3,3.600099995892947e-09
CCD Offset,0
CCD Gain,1.9
Laser Wavelength,633.0
Laser Enable,True
Laser Power,100.0
Laser Temperature,-99
Pixel Count,1952

Wavenumber,Processed
-492.30,0.00
-489.55,0.00
-486.79,0.00
-484.04,242.00
-481.30,-285.00
-478.55,755.00
-475.81,288.00
-473.06,-292.00
-470.32,-512.00
-467.59,-98.00
-464.85,251.00
-462.12,353.00
-459.38,-598.00
-456.65,-166.00
-453.93,-431.00
-451.20,-132.00
-448.48,90.00
-445.75,-469.00
-443.03,-288.00
-440.31,-510.00
-437.60,194.00
-434.88,404.00
-432.17,653.00
-429.46,421.00
-426.75,-160.00
-424.04,-46.00
-421.34,239.00
-418.64,136.00
-415.93,218.00
-413.24,428.00
-410.54,-446.00
-407.84,429.00
-405.15,257.00
-402.46,-453.00
-399.77,-276.00
-397.08,211.00
-394.39,491.00
-391.71,32.00
-389.03,-164.00
-386.35,180.00
-383.67,-575.00
-380.99,-170.00
-378.32,325.00
-375.65,69.00
-372.98,-152.00
-370.31,37.00
-367.64,96.00
-364.98,-552.00
-362.31,245.00
-359.65,467.00
-356.99,-433.00
-354.33,-64.00
-351.68,-165.00
-349.03,-322.00
-346.37,-517.00
-343.72,143.00
-341.08,-17.00
-338.43,-715.00
-335.78,588.00
-333.14,368.00
-330.50,-105.00
-327.86,-492.00
-325.23,-712.00
-322.59,-520.00
-319.96,724.00
-317.33,168.00
-314.70,-508.00
-312.07,-324.00
-309.44,792.00
-306.82,-77.00
-304.20,314.00
-301.57,-528.00
-298.96,301.00
-296.34,407.00
-293.72,512.00
-291.11,351.00
-288.50,473.00
-285.89,-442.00
-283.28,38.00
-280.68,184.00
-278.07,-403.00
-275.47,877.00
-272.87,146.00
-270.27,143.00
-267.68,-418.00
-265.08,104.00
-262.49,422.00
-259.90,-212.00
-257.31,258.00
-254.72,-181.00
-252.13,298.00
-249.55,-177.00
-246.97,476.00
-244.39,401.00
-241.81,-273.00
-239.23,-321.00
-236.65,10.00
-234.08,869.00
-231.51,26.00
-228.94,-216.00
-226.37,-626.00
-223.81,-149.00
-221.24,-125.00
-218.68,130.00
-216.12,44.00
-213.56,381.00
-211.00,-207.00
-208.45,-26.00
-205.89,44.00
-203.34,220.00
-200.79,-298.00
-198.24,-25.00
-195.69,-788.00
-193.15,112.00
-190.61,80.00
-188.06,838.00
-185.52,-6.00
-182.99,239.00
-180.45,11.00
-177.92,68.00
-175.38,-22.00
-172.85,-224.00
-170.32,178.00
-167.79,-321.00
-165.27,-68.00
-162.74,395.00
-160.22,192.00
-157.70,409.00
-155.18,-44.00
-152.66,-159.00
-150.15,63.00
-147.64,139.00
-145.12,4.00
-142.61,242.00
-140.10,-8.00
-137.60,-614.00
-135.09,-275.00
-132.59,-349.00
-130.09,230.00
-127.59,315.00
-125.09,70.00
-122.59,-202.00
-120.10,187.00
-117.60,-91.00
-115.11,74.00
-112.62,19.00
-110.13,551.00
-107.65,808.00
-105.16,105.00
-102.68,40.00
-100.20,364.00
-97.72,-293.00
-95.24,-223.00
-92.76,-85.00
-90.29,-344.00
-87.82,250.00
-85.35,-242.00
-82.88,-180.00
-80.41,850.00
-77.94,476.00
-75.48,200.00
-73.01,722.00
-70.55,338.00
-68.09,-106.00
-65.64,-253.00
-63.18,-107.00
-60.73,-66.00
-58.27,537.00
-55.82,-92.00
-53.37,-271.00
-50.92,-509.00
-48.48,300.00
-46.03,299.00
-43.59,-182.00
-41.15,437.00
-38.71,314.00
-36.27,-247.00
-33.83,360.00
-31.40,-714.00
-28.97,700.00
-26.53,325.00
-24.10,-375.00
-21.68,39.00
-19.25,-351.00
-16.82,512.00
-14.40,137.00
-11.98,-97.00
-9.56,-583.00
-7.14,-267.00
-4.72,-45.00
-2.31,-311.00
0.10,59.00
2.52,80.00
4.93,258.00
7.34,-135.00
9.74,216.00
12.15,110.00
14.55,668.00
16.95,-2.00
19.36,-335.00
21.75,-302.00
24.15,-190.00
26.55,650.00
28.94,202.00
31.34,-508.00
33.73,570.00
36.12,-634.00
38.50,128.00
40.89,151.00
43.27,591.00
45.66,-244.00
48.04,63.00
50.42,-6.00
52.80,657.00
55.17,-158.00
57.55,-186.00
59.92,398.00
62.30,-215.00
64.67,192.00
67.04,-75.00
69.40,-197.00
71.77,-407.00
74.13,20.00
76.50,316.00
78.86,35.00
81.22,738.00
83.57,467.00
85.93,-240.00
88.29,-161.00
90.64,17.00
92.99,-10.00
95.34,-188.00
97.69,776.00
100.04,-20.00
102.38,-25.00
104.73,519.00
107.07,-167.00
109.41,143.00
111.75,452.00
114.09,-151.00
116.42,-146.00
118.76,-443.00
121.09,-297.00
123.42,93.00
125.75,-340.00
128.08,-605.00
130.41,-313.00
132.74,-347.00
135.06,804.00
137.38,-157.00
139.70,18.00
142.02,-274.00
144.34,-145.00
146.66,88.00
148.97,54.00
151.29,-240.00
153.60,122.00
155.91,-39.00
158.22,-444.00
160.52,-34.00
162.83,13.00
165.13,-262.00
167.44,61.00
169.74,858.00
172.04,-53.00
174.34,-150.00
176.63,-422.00
178.93,-218.00
181.22,30.00
183.52,-616.00
185.81,-307.00
188.10,283.00
190.38,-460.00
192.67,214.00
194.96,16.00
197.24,203.00
199.52,559.00
201.80,419.00
204.08,360.00
206.36,601.00
208.63,174.00
210.91,257.00
213.18,349.00
215.45,-185.00
217.72,-419.00
219.99,395.00
222.26,515.00
224.53,442.00
226.79,927.00
229.05,109.00
231.31,-93.00
233.57,-69.00
235.83,-426.00
238.09,-432.00
240.35,442.00
242.60,-293.00
244.85,-57.00
247.10,406.00
249.35,-330.00
251.60,360.00
253.85,115.00
256.09,3.00
258.34,-203.00
260.58,562.00
262.82,-414.00
265.06,-97.00
267.30,425.00
269.54,249.00
271.77,-197.00
274.01,242.00
276.24,268.00
278.47,47.00
280.70,444.00
282.93,665.00
285.15,97.00
287.38,300.00
289.60,636.00
291.83,172.00
294.05,-246.00
296.27,163.00
298.48,738.00
300.70,-394.00
302.92,-378.00
305.13,-260.00
307.34,370.00
309.56,-387.00
311.77,-491.00
313.97,-193.00
316.18,-58.00
318.39,386.00
320.59,-329.00
322.79,-24.00
324.99,-271.00
327.19,708.00
329.39,380.00
331.59,500.00
333.79,1218.00
335.98,475.00
338.17,677.00
340.37,888.00
342.56,755.00
344.74,1427.00
346.93,758.00
349.12,1313.00
351.30,1288.00
353.49,1208.00
355.67,1385.00
357.85,852.00
360.03,1998.00
362.21,1648.00
364.38,1620.00
366.56,1341.00
368.73,1240.00
370.90,1052.00
373.08,2070.00
375.24,2440.00
377.41,1372.00
379.58,2310.00
381.75,1782.00
383.91,1744.00
386.07,1600.00
388.23,1602.00
390.39,1676.00
392.55,1934.00
394.71,1545.00
396.87,1474.00
399.02,1495.00
401.17,783.00
403.33,1692.00
405.48,1264.00
407.63,978.00
409.77,1865.00
411.92,1310.00
414.07,1789.00
416.21,1417.00
418.35,1973.00
420.49,1386.00
422.63,1385.00
424.77,1180.00
426.91,1427.00
429.05,1620.00
431.18,2065.00
433.31,944.00
435.45,996.00
437.58,1267.00
439.71,2135.00
441.83,1941.00
443.96,1956.00
446.09,1884.00
448.21,1462.00
450.33,2828.00
452.45,1566.00
454.57,1877.00
456.69,1429.00
458.81,1460.00
460.93,1543.00
463.04,1474.00
465.16,1734.00
467.27,1273.00
469.38,1268.00
471.49,1361.00
473.60,1619.00
475.70,1531.00
477.81,781.00
479.91,1609.00
482.02,1363.00
484.12,1894.00
486.22,1653.00
488.32,1352.00
490.42,1671.00
492.51,1400.00
494.61,1618.00
496.70,520.00
498.80,1137.00
500.89,854.00
502.98,1003.00
505.07,1362.00
507.15,1405.00
509.24,761.00
511.33,636.00
513.41,869.00
515.49,1435.00
517.57,1505.00
519.65,1137.00
521.73,984.00
523.81,1449.00
525.89,1340.00
527.96,563.00
530.03,2104.00
532.11,1068.00
534.18,359.00
536.25,1163.00
538.32,1193.00
540.38,1166.00
542.45,639.00
544.51,467.00
546.58,1074.00
548.64,1849.00
550.70,2275.00
552.76,1648.00
554.82,1514.00
556.88,1412.00
558.93,1571.00
560.99,1584.00
563.04,1662.00
565.09,1725.00
567.14,1933.00
569.19,826.00
571.24,1044.00
573.29,762.00
575.34,1502.00
577.38,1556.00
579.42,869.00
581.47,1120.00
583.51,1337.00
585.55,559.00
587.59,1073.00
589.62,1130.00
591.66,1497.00
593.70,577.00
595.73,1477.00
597.76,819.00
599.79,1645.00
601.82,1297.00
603.85,1104.00
605.88,1199.00
607.91,1658.00
609.93,781.00
611.96,1113.00
613.98,757.00
616.00,1780.00
618.02,928.00
620.04,243.00
622.06,1825.00
624.08,1847.00
626.09,1335.00
628.11,1668.00
630.12,1513.00
632.13,1111.00
634.14,1854.00
636.15,1481.00
638.16,1588.00
640.17,1796.00
642.17,2049.00
644.18,1710.00
646.18,1951.00
648.18,1955.00
650.18,2065.00
652.18,2088.00
654.18,1850.00
656.18,1380.00
658.18,872.00
660.17,2159.00
662.17,2105.00
664.16,1311.00
666.15,1132.00
668.14,1463.00
670.13,2297.00
672.12,626.00
674.11,744.00
676.09,1072.00
678.08,1173.00
680.06,1668.00
682.04,2015.00
684.02,1682.00
686.00,1346.00
687.98,1961.00
689.96,612.00
691.94,688.00
693.91,1874.00
695.89,1178.00
697.86,1107.00
699.83,1815.00
701.80,1538.00
703.77,1325.00
705.74,795.00
707.71,1270.00
709.67,1049.00
711.64,1277.00
713.60,1030.00
715.56,1344.00
717.52,1413.00
719.48,760.00
721.44,591.00
723.40,1203.00
725.36,1341.00
727.31,1446.00
729.27,873.00
731.22,1775.00
733.17,1390.00
735.13,783.00
737.08,832.00
739.02,1544.00
740.97,1028.00
742.92,1262.00
744.86,1410.00
746.81,2254.00
748.75,924.00
750.69,1405.00
752.63,640.00
754.57,1647.00
756.51,1467.00
758.45,638.00
760.39,1559.00
762.32,2127.00
764.26,2262.00
766.19,827.00
768.12,1654.00
770.05,1027.00
771.98,1970.00
773.91,1419.00
775.84,1999.00
777.76,2071.00
779.69,1750.00
781.61,1718.00
783.54,2098.00
785.46,1828.00
787.38,2164.00
789.30,1152.00
791.22,1102.00
793.13,1995.00
795.05,1270.00
796.97,1373.00
798.88,1355.00
800.79,1177.00
802.70,1048.00
804.62,878.00
806.52,495.00
808.43,1252.00
810.34,938.00
812.25,2171.00
814.15,1514.00
816.06,972.00
817.96,2253.00
819.86,1303.00
821.76,1373.00
823.66,1766.00
825.56,1542.00
827.46,1486.00
829.36,1984.00
831.25,1755.00
833.15,2218.00
835.04,2038.00
836.93,1914.00
838.82,2142.00
840.71,2167.00
842.60,2482.00
844.49,2409.00
846.38,2899.00
848.26,2604.00
850.15,2808.00
852.03,2611.00
853.91,2802.00
855.80,2804.00
857.68,3494.00
859.56,2085.00
861.43,2806.00
863.31,2849.00
865.19,2291.00
867.06,2697.00
868.94,2590.00
870.81,1957.00
872.68,2837.00
874.55,1555.00
876.42,2359.00
878.29,1281.00
880.16,2233.00
882.03,1768.00
883.89,2208.00
885.76,1313.00
887.62,1029.00
889.48,1721.00
891.35,1409.00
893.21,1612.00
895.07,2047.00
896.92,1497.00
898.78,1779.00
900.64,650.00
902.49,1131.00
904.35,1373.00
906.20,1038.00
908.05,1956.00
909.90,1652.00
911.75,1507.00
913.60,980.00
915.45,1538.00
917.30,1641.00
919.14,833.00
920.99,1184.00
922.83,1790.00
924.68,1704.00
926.52,1557.00
928.36,1412.00
930.20,1921.00
932.04,1073.00
933.87,1059.00
935.71,1067.00
937.55,1497.00
939.38,2075.00
941.21,2352.00
943.05,1472.00
944.88,1474.00
946.71,3011.00
948.54,2371.00
950.37,1858.00
952.20,1735.00
954.02,1515.00
955.85,2176.00
957.67,1619.00
959.50,2739.00
961.32,2704.00
963.14,2892.00
964.96,3269.00
966.78,3078.00
968.60,3807.00
970.42,2473.00
972.23,2802.00
974.05,3713.00
975.86,3975.00
977.68,3493.00
979.49,3798.00
981.30,4205.00
983.11,2343.00
984.92,3628.00
986.73,2482.00
988.54,2726.00
990.34,2092.00
992.15,2209.00
993.95,2538.00
995.76,2352.00
997.56,2939.00
999.36,2283.00
1001.16,1987.00
1002.96,1922.00
1004.76,2335.00
1006.56,1998.00
1008.35,1649.00
1010.15,1676.00
1011.94,1708.00
1013.74,1340.00
1015.53,1646.00
1017.32,1337.00
1019.11,866.00
1020.90,1699.00
1022.69,2237.00
1024.48,875.00
1026.27,1236.00
1028.05,1872.00
1029.84,1505.00
1031.62,1026.00
1033.41,1622.00
1035.19,1527.00
1036.97,1557.00
1038.75,1711.00
1040.53,2041.00
1042.31,2901.00
1044.08,2326.00
1045.86,3352.00
1047.64,2328.00
1049.41,2669.00
1051.18,2391.00
1052.96,3007.00
1054.73,3121.00
1056.50,2448.00
1058.27,2490.00
1060.04,2796.00
1061.81,2646.00
1063.57,3376.00
1065.34,2275.00
1067.10,1535.00
1068.87,2611.00
1070.63,2104.00
1072.39,2173.00
1074.15,2234.00
1075.91,1517.00
1077.67,2177.00
1079.43,2266.00
1081.19,1786.00
1082.95,2057.00
1084.70,2052.00
1086.46,1526.00
1088.21,1584.00
1089.96,1898.00
1091.71,1965.00
1093.47,2045.00
1095.22,2564.00
1096.96,2346.00
1098.71,2952.00
1100.46,3051.00
1102.21,2493.00
1103.95,3970.00
1105.70,3847.00
1107.44,2991.00
1109.18,2519.00
1110.92,2962.00
1112.66,3184.00
1114.40,3094.00
1116.14,2617.00
1117.88,3003.00
1119.62,2805.00
1121.35,2321.00
1123.09,2763.00
1124.82,1808.00
1126.56,1844.00
1128.29,2178.00
1130.02,1700.00
1131.75,1688.00
1133.48,2151.00
1135.21,1651.00
1136.94,1936.00
1138.67,2067.00
1140.39,2541.00
1142.12,1842.00
1143.84,2271.00
1145.57,2190.00
1147.29,2088.00
1149.01,2098.00
1150.73,2187.00
1152.45,2657.00
1154.17,2643.00
1155.89,2882.00
1157.60,2927.00
1159.32,2984.00
1161.04,4733.00
1162.75,5277.00
1164.46,6040.00
1166.18,8529.00
1167.89,9193.00
1169.60,12874.00
1171.31,15897.00
1173.02,18063.00
1174.73,19582.00
1176.43,21174.00
1178.14,22643.00
1179.85,22689.00
1181.55,21615.00
1183.25,23420.00
1184.96,22850.00
1186.66,22993.00
1188.36,20130.00
1190.06,22916.00
1191.76,22230.00
1193.46,21120.00
1195.16,20340.00
1196.85,20796.00
1198.55,18786.00
1200.24,18302.00
1201.94,17980.00
1203.63,17928.00
1205.32,17075.00
1207.02,15936.00
1208.71,16688.00
1210.40,16083.00
1212.09,14896.00
1213.77,12582.00
1215.46,12619.00
1217.15,11790.00
1218.83,11991.00
1220.52,10778.00
1222.20,9240.00
1223.88,7965.00
1225.57,7556.00
1227.25,7674.00
1228.93,5929.00
1230.61,5857.00
1232.29,4864.00
1233.96,4976.00
1235.64,3890.00
1237.32,3904.00
1238.99,4603.00
1240.67,3582.00
1242.34,2988.00
1244.01,3069.00
1245.69,2802.00
1247.36,2981.00
1249.03,2996.00
1250.70,1780.00
1252.36,1870.00
1254.03,2300.00
1255.70,2326.00
1257.37,1808.00
1259.03,2552.00
1260.69,2208.00
1262.36,2767.00
1264.02,1984.00
1265.68,2396.00
1267.34,3226.00
1269.00,2101.00
1270.66,2373.00
1272.32,2375.00
1273.98,2657.00
1275.64,2536.00
1277.29,2602.00
1278.95,3274.00
1280.60,2400.00
1282.25,4001.00
1283.91,3315.00
1285.56,4051.00
1287.21,4631.00
1288.86,3998.00
1290.51,5318.00
1292.16,3631.00
1293.81,4814.00
1295.45,4705.00
1297.10,4462.00
1298.74,5263.00
1300.39,4971.00
1302.03,5289.00
1303.68,6062.00
1305.32,6597.00
1306.96,7271.00
1308.60,6527.00
1310.24,7663.00
1311.88,7472.00
1313.52,7664.00
1315.15,7387.00
1316.79,7532.00
1318.42,9195.00
1320.06,7490.00
1321.69,8624.00
1323.33,8721.00
1324.96,8701.00
1326.59,9265.00
1328.22,8336.00
1329.85,9201.00
1331.48,9216.00
1333.11,8597.00
1334.74,7228.00
1336.36,6817.00
1337.99,6527.00
1339.61,7608.00
1341.24,5710.00
1342.86,6358.00
1344.48,5543.00
1346.11,6106.00
1347.73,5774.00
1349.35,5094.00
1350.97,5165.00
1352.58,4049.00
1354.20,2807.00
1355.82,3366.00
1357.44,2868.00
1359.05,2843.00
1360.67,3759.00
1362.28,2358.00
1363.89,2814.00
1365.51,2743.00
1367.12,2846.00
1368.73,1891.00
1370.34,2074.00
1371.95,1953.00
1373.56,2411.00
1375.17,1873.00
1376.77,2546.00
1378.38,2115.00
1379.98,894.00
1381.59,1837.00
1383.19,2382.00
1384.80,1468.00
1386.40,1810.00
1388.00,2099.00
1389.60,2031.00
1391.20,1639.00
1392.80,2511.00
1394.40,2337.00
1396.00,1641.00
1397.59,2167.00
1399.19,1749.00
1400.78,1386.00
1402.38,1396.00
1403.97,1962.00
1405.57,1711.00
1407.16,2447.00
1408.75,2041.00
1410.34,1200.00
1411.93,1606.00
1413.52,2172.00
1415.11,1841.00
1416.70,1977.00
1418.28,1482.00
1419.87,1520.00
1421.46,1494.00
1423.04,1610.00
1424.63,2097.00
1426.21,1682.00
1427.79,2352.00
1429.37,2012.00
1430.95,2249.00
1432.54,2718.00
1434.11,2048.00
1435.69,1824.00
1437.27,2054.00
1438.85,2736.00
1440.43,2706.00
1442.00,2434.00
1443.58,2677.00
1445.15,2278.00
1446.72,2388.00
1448.30,1811.00
1449.87,2806.00
1451.44,2654.00
1453.01,3026.00
1454.58,3034.00
1456.15,2208.00
1457.72,2491.00
1459.29,2740.00
1460.85,2628.00
1462.42,2639.00
1463.99,2630.00
1465.55,2396.00
1467.12,1981.00
1468.68,2033.00
1470.24,3032.00
1471.80,2592.00
1473.36,2656.00
1474.93,3301.00
1476.49,2261.00
1478.04,3054.00
1479.60,2987.00
1481.16,2110.00
1482.72,3456.00
1484.27,2552.00
1485.83,2351.00
1487.38,1660.00
1488.94,1879.00
1490.49,2072.00
1492.04,2376.00
1493.60,2004.00
1495.15,2866.00
1496.70,1989.00
1498.25,2245.00
1499.80,2053.00
1501.34,2242.00
1502.89,2637.00
1504.44,2593.00
1505.98,2092.00
1507.53,2821.00
1509.07,2030.00
1510.62,2922.00
1512.16,2008.00
1513.70,2986.00
1515.25,2855.00
1516.79,2160.00
1518.33,2327.00
1519.87,2061.00
1521.41,2081.00
1522.95,1638.00
1524.48,2072.00
1526.02,1736.00
1527.56,2271.00
1529.09,2789.00
1530.63,2584.00
1532.16,2567.00
1533.69,3561.00
1535.23,3442.00
1536.76,3282.00
1538.29,3230.00
1539.82,3881.00
1541.35,3864.00
1542.88,4097.00
1544.41,5247.00
1545.94,5217.00
1547.47,6005.00
1548.99,6535.00
1550.52,6398.00
1552.04,6937.00
1553.57,7796.00
1555.09,6381.00
1556.61,6889.00
1558.14,7428.00
1559.66,8081.00
1561.18,7913.00
1562.70,6822.00
1564.22,8726.00
1565.74,8995.00
1567.26,9053.00
1568.78,10373.00
1570.29,12432.00
1571.81,14679.00
1573.32,14928.00
1574.84,20193.00
1576.35,22813.00
1577.87,29073.00
1579.38,32024.00
1580.89,32631.00
1582.41,39442.00
1583.92,37914.00
1585.43,41588.00
1586.94,43107.00
1588.45,44428.00
1589.95,43610.00
1591.46,43848.00
1592.97,43628.00
1594.47,42965.00
1595.98,43310.00
1597.49,42199.00
1598.99,39992.00
1600.49,41526.00
1602.00,40400.00
1603.50,39400.00
1605.00,38914.00
1606.50,39496.00
1608.00,39348.00
1609.50,38381.00
1611.00,37892.00
1612.50,38558.00
1614.00,38036.00
1615.49,37926.00
1616.99,35649.00
1618.49,37168.00
1619.98,35892.00
1621.48,33512.00
1622.97,33595.00
1624.46,32734.00
1625.96,29246.00
1627.45,28531.00
1628.94,26435.00
1630.43,24141.00
1631.92,23662.00
1633.41,23031.00
1634.90,21196.00
1636.39,21271.00
1637.87,20122.00
1639.36,17939.00
1640.85,16600.00
1642.33,14910.00
1643.82,16004.00
1645.30,14838.00
1646.78,14623.00
1648.27,14403.00
1649.75,10917.00
1651.23,11132.00
1652.71,9269.00
1654.19,9453.00
1655.67,9621.00
1657.15,8366.00
1658.63,7911.00
1660.11,6948.00
1661.58,5840.00
1663.06,5847.00
1664.54,5297.00
1666.01,4532.00
1667.49,4221.00
1668.96,3233.00
1670.43,3592.00
1671.91,2914.00
1673.38,4256.00
1674.85,2743.00
1676.32,3524.00
1677.79,2442.00
1679.26,2897.00
1680.73,2015.00
1682.20,2202.00
1683.67,2629.00
1685.14,2407.00
1686.60,1931.00
1688.07,2397.00
1689.53,1649.00
1691.00,1346.00
1692.46,1657.00
1693.93,1992.00
1695.39,1840.00
1696.85,1981.00
1698.31,1134.00
1699.77,2196.00
1701.23,2501.00
1702.69,2460.00
1704.15,588.00
1705.61,1244.00
1707.07,2222.00
1708.53,793.00
1709.98,2082.00
1711.44,2518.00
1712.90,2209.00
1714.35,1004.00
1715.81,1705.00
1717.26,1577.00
1718.71,1137.00
1720.16,837.00
1721.62,1396.00
1723.07,1158.00
1724.52,1127.00
1725.97,1738.00
1727.42,1150.00
1728.87,994.00
1730.32,854.00
1731.76,1540.00
1733.21,1486.00
1734.66,1778.00
1736.10,1811.00
1737.55,1585.00
1738.99,965.00
1740.44,1195.00
1741.88,1356.00
1743.32,2316.00
1744.77,983.00
1746.21,1558.00
1747.65,633.00
1749.09,1917.00
1750.53,1820.00
1751.97,1798.00
1753.41,1189.00
1754.85,713.00
1756.29,780.00
1757.72,1484.00
1759.16,1754.00
1760.60,1963.00
1762.03,2157.00
1763.47,1559.00
1764.90,1281.00
1766.33,1184.00
1767.77,1955.00
1769.20,1598.00
1770.63,1163.00
1772.06,1322.00
1773.49,1885.00
1774.92,944.00
1776.35,1348.00
1777.78,923.00
1779.21,1025.00
1780.64,1193.00
1782.07,1660.00
1783.49,1212.00
1784.92,1488.00
1786.34,940.00
1787.77,1150.00
1789.19,1025.00
1790.62,1297.00
1792.04,1158.00
1793.46,704.00
1794.89,798.00
1796.31,1672.00
1797.73,1268.00
1799.15,1231.00
1800.57,1284.00
1801.99,728.00
1803.41,966.00
1804.83,836.00
1806.24,441.00
1807.66,1548.00
1809.08,174.00
1810.49,1789.00
1811.91,1629.00
1813.32,1342.00
1814.74,1061.00
1816.15,1313.00
1817.57,1205.00
1818.98,1114.00
1820.39,1423.00
1821.80,1017.00
1823.21,1167.00
1824.62,1510.00
1826.03,410.00
1827.44,370.00
1828.85,350.00
1830.26,840.00
1831.67,1356.00
1833.08,516.00
1834.48,970.00
1835.89,1165.00
1837.29,742.00
1838.70,784.00
1840.10,1024.00
1841.51,186.00
1842.91,1229.00
1844.31,586.00
1845.72,804.00
1847.12,939.00
1848.52,444.00
1849.92,831.00
1851.32,1068.00
1852.72,683.00
1854.12,630.00
1855.52,905.00
1856.91,1727.00
1858.31,1168.00
1859.71,1167.00
1861.11,1367.00
1862.50,181.00
1863.90,306.00
1865.29,980.00
1866.69,849.00
1868.08,1382.00
1869.47,1397.00
1870.87,800.00
1872.26,986.00
1873.65,1140.00
1875.04,1257.00
1876.43,677.00
1877.82,943.00
1879.21,877.00
1880.60,895.00
1881.99,1123.00
1883.38,909.00
1884.76,887.00
1886.15,81.00
1887.54,1807.00
1888.92,1365.00
1890.31,962.00
1891.69,763.00
1893.08,1002.00
1894.46,952.00
1895.84,1127.00
1897.23,1333.00
1898.61,622.00
1899.99,963.00
1901.37,960.00
1902.75,1237.00
1904.13,787.00
1905.51,371.00
1906.89,9.00
1908.27,1631.00
1909.65,322.00
1911.03,1058.00
1912.40,770.00
1913.78,1188.00
1915.15,409.00
1916.53,1075.00
1917.91,264.00
1919.28,1645.00
1920.65,1133.00
1922.03,769.00
1923.40,1257.00
1924.77,1219.00
1926.14,786.00
1927.52,647.00
1928.89,1045.00
1930.26,1295.00
1931.63,1048.00
1933.00,893.00
1934.37,1319.00
1935.73,998.00
1937.10,1513.00
1938.47,857.00
1939.84,673.00
1941.20,425.00
1942.57,575.00
1943.94,905.00
1945.30,-50.00
1946.66,744.00
1948.03,942.00
1949.39,918.00
1950.76,856.00
1952.12,751.00
1953.48,1058.00
1954.84,926.00
1956.20,894.00
1957.56,1375.00
1958.92,408.00
1960.28,661.00
1961.64,1402.00
1963.00,1454.00
1964.36,496.00
1965.72,720.00
1967.07,887.00
1968.43,618.00
1969.79,1179.00
1971.14,633.00
1972.50,661.00
1973.85,863.00
1975.21,433.00
1976.56,1567.00
1977.91,394.00
1979.27,943.00
1980.62,1178.00
1981.97,362.00
1983.32,1494.00
1984.67,1219.00
1986.02,1015.00
1987.37,540.00
1988.72,626.00
1990.07,1070.00
1991.42,1150.00
1992.77,1355.00
1994.12,823.00
1995.46,871.00
1996.81,1930.00
1998.16,995.00
1999.50,617.00
2000.85,990.00
2002.19,962.00
2003.54,898.00
2004.88,1286.00
2006.22,551.00
2007.57,936.00
2008.91,924.00
2010.25,127.00
2011.59,1084.00
2012.93,264.00
2014.27,490.00
2015.61,-31.00
2016.95,1052.00
2018.29,771.00
2019.63,325.00
2020.97,652.00
2022.31,531.00
2023.64,532.00
2024.98,1454.00
2026.32,1066.00
2027.65,773.00
2028.99,545.00
2030.32,954.00
2031.66,1207.00
2032.99,1328.00
2034.33,912.00
2035.66,750.00
2036.99,441.00
2038.32,957.00
2039.66,214.00
2040.99,846.00
2042.32,725.00
2043.65,799.00
2044.98,1393.00
2046.31,1098.00
2047.64,399.00
2048.97,309.00
2050.29,975.00
2051.62,446.00
2052.95,651.00
2054.28,907.00
2055.60,1276.00
2056.93,731.00
2058.25,752.00
2059.58,1517.00
2060.90,657.00
2062.23,1114.00
2063.55,661.00
2064.88,502.00
2066.20,975.00
2067.52,1503.00
2068.84,384.00
2070.16,1121.00
2071.49,814.00
2072.81,532.00
2074.13,282.00
2075.45,632.00
2076.77,900.00
2078.09,1241.00
2079.40,369.00
2080.72,1276.00
2082.04,699.00
2083.36,1178.00
2084.67,413.00
2085.99,650.00
2087.31,702.00
2088.62,353.00
2089.94,542.00
2091.25,903.00
2092.57,855.00
2093.88,1815.00
2095.19,179.00
2096.51,841.00
2097.82,835.00
2099.13,1759.00
2100.44,1160.00
2101.75,850.00
2103.06,882.00
2104.37,1070.00
2105.68,1685.00
2106.99,990.00
2108.30,1001.00
2109.61,516.00
2110.92,1267.00
2112.23,717.00
2113.54,621.00
2114.84,1083.00
2116.15,-80.00
2117.46,828.00
2118.76,681.00
2120.07,935.00
2121.37,989.00
2122.68,1018.00
2123.98,921.00
2125.28,81.00
2126.59,347.00
2127.89,681.00
2129.19,462.00
2130.49,-430.00
2131.80,-409.00
2133.10,912.00
2134.40,525.00
2135.70,578.00
2137.00,334.00
2138.30,840.00
2139.60,753.00
2140.90,206.00
2142.19,161.00
2143.49,504.00
2144.79,381.00
2146.09,674.00
2147.38,462.00
2148.68,520.00
2149.98,548.00
2151.27,809.00
2152.57,-155.00
2153.86,756.00
2155.16,150.00
2156.45,416.00
2157.74,1347.00
2159.04,426.00
2160.33,-36.00
2161.62,428.00
2162.91,323.00
2164.20,1113.00
2165.50,1159.00
2166.79,567.00
2168.08,791.00
2169.37,1007.00
2170.66,790.00
2171.94,571.00
2173.23,908.00
2174.52,963.00
2175.81,-96.00
2177.10,498.00
2178.38,321.00
2179.67,782.00
2180.96,429.00
2182.24,671.00
2183.53,412.00
2184.81,1047.00
2186.10,1067.00
2187.38,838.00
2188.67,647.00
2189.95,641.00
2191.24,867.00
2192.52,677.00
2193.80,207.00
2195.08,456.00
2196.36,-104.00
2197.65,749.00
2198.93,540.00
2200.21,969.00
2201.49,620.00
2202.77,718.00
2204.05,734.00
2205.33,292.00
2206.60,850.00
2207.88,420.00
2209.16,905.00
2210.44,740.00
2211.72,783.00
2212.99,370.00
2214.27,620.00
2215.54,695.00
2216.82,1438.00
2218.10,949.00
2219.37,959.00
2220.65,960.00
2221.92,149.00
2223.19,223.00
2224.47,1104.00
2225.74,-22.00
2227.01,826.00
2228.28,1046.00
2229.56,987.00
2230.83,1134.00
2232.10,966.00
2233.37,940.00
2234.64,991.00
2235.91,751.00
2237.18,810.00
2238.45,658.00
2239.72,736.00
2240.99,73.00
2242.26,-255.00
2243.52,128.00
2244.79,1161.00
2246.06,1235.00
2247.33,753.00
2248.59,985.00
2249.86,527.00
2251.12,624.00
2252.39,367.00
2253.65,1039.00
2254.92,824.00
2256.18,1133.00
2257.45,1083.00
2258.71,599.00
2259.97,870.00
2261.24,459.00
2262.50,528.00
2263.76,800.00
2265.02,1195.00
2266.29,591.00
2267.55,6.00
2268.81,565.00
2270.07,178.00
2271.33,750.00
2272.59,565.00
2273.85,-4.00
2275.11,451.00
2276.36,730.00
2277.62,627.00
2278.88,746.00
2280.14,409.00
2281.40,636.00
2282.65,1241.00
2283.91,661.00
2285.17,432.00
2286.42,136.00
2287.68,940.00
2288.93,754.00
2290.19,1015.00
2291.44,562.00
2292.70,348.00
2293.95,556.00
2295.20,641.00
2296.46,369.00
2297.71,131.00
2298.96,629.00
2300.21,202.00
2301.46,911.00
2302.72,667.00
2303.97,462.00
2305.22,242.00
2306.47,580.00
2307.72,998.00
2308.97,320.00
2310.22,521.00
2311.47,758.00
2312.72,690.00
2313.96,612.00
2315.21,883.00
2316.46,384.00
2317.71,1045.00
2318.95,129.00
2320.20,356.00
2321.45,732.00
2322.69,123.00
2323.94,1082.00
2325.18,785.00
2326.43,24.00
2327.67,1033.00
2328.92,632.00
2330.16,649.00
2331.41,1112.00
2332.65,579.00
2333.89,512.00
2335.14,361.00
2336.38,434.00
2337.62,902.00
2338.86,420.00
2340.10,724.00
2341.34,108.00
2342.59,362.00
2343.83,526.00
2345.07,721.00
2346.31,974.00
2347.55,118.00
2348.79,251.00
2350.02,787.00
2351.26,410.00
2352.50,369.00
2353.74,619.00
2354.98,426.00
2356.21,521.00
2357.45,262.00
2358.69,912.00
2359.92,532.00
2361.16,254.00
2362.40,168.00
2363.63,700.00
2364.87,208.00
2366.10,346.00
2367.34,1324.00
2368.57,-51.00
2369.80,171.00
2371.04,485.00
2372.27,404.00
2373.50,268.00
2374.74,-239.00
2375.97,624.00
2377.20,353.00
2378.43,699.00
2379.66,116.00
2380.89,1222.00
2382.13,778.00
2383.36,849.00
2384.59,576.00
2385.82,485.00
2387.05,643.00
2388.27,1174.00
2389.50,360.00
2390.73,947.00
2391.96,590.00
2393.19,29.00
2394.42,-222.00
2395.64,267.00
2396.87,149.00
2398.10,637.00
2399.32,803.00
2400.55,664.00
2401.78,814.00
2403.00,146.00
2404.23,234.00
2405.45,336.00
2406.68,248.00
2407.90,722.00
2409.13,626.00
2410.35,569.00
2411.57,284.00
2412.80,594.00
2414.02,794.00
2415.24,111.00
2416.46,351.00
2417.69,-169.00
2418.91,468.00
2420.13,669.00
2421.35,688.00
2422.57,20.00
2423.79,1013.00
2425.01,187.00
2426.23,663.00
2427.45,434.00
2428.67,622.00
2429.89,715.00
2431.11,443.00
2432.33,435.00
2433.55,309.00
2434.77,434.00
2435.98,509.00
2437.20,979.00
2438.42,646.00
2439.63,297.00
2440.85,365.00
2442.07,625.00
2443.28,703.00
2444.50,360.00
2445.71,1516.00
2446.93,202.00
2448.15,811.00
2449.36,552.00
2450.57,-73.00
2451.79,857.00
2453.00,458.00
2454.22,395.00
2455.43,770.00
2456.64,1090.00
2457.85,661.00
2459.07,439.00
2460.28,437.00
2461.49,1124.00
2462.70,261.00
2463.91,458.00
2465.12,-118.00
2466.34,421.00
2467.55,359.00
2468.76,697.00
2469.97,1258.00
2471.18,621.00
2472.39,556.00
2473.59,1108.00
2474.80,146.00
2476.01,142.00
2477.22,-66.00
2478.43,753.00
2479.64,433.00
2480.84,325.00
2482.05,652.00
2483.26,329.00
2484.47,1078.00
2485.67,219.00
2486.88,516.00
2488.08,812.00
2489.29,427.00
2490.49,243.00
2491.70,606.00
2492.90,639.00
2494.11,587.00
2495.31,705.00
2496.52,601.00
2497.72,519.00
2498.93,536.00
2500.13,895.00
2501.33,979.00
2502.53,856.00
2503.74,45.00
2504.94,667.00
2506.14,827.00
2507.34,379.00
2508.54,726.00
2509.75,1152.00
2510.95,666.00
2512.15,145.00
2513.35,594.00
2514.55,105.00
2515.75,544.00
2516.95,427.00
2518.15,666.00
2519.35,461.00
2520.55,454.00
2521.74,290.00
2522.94,558.00
2524.14,251.00
2525.34,167.00
2526.54,792.00
2527.73,1054.00
2528.93,876.00
2530.13,909.00
2531.33,134.00
2532.52,407.00
2533.72,867.00
2534.91,180.00
2536.11,347.00
2537.31,502.00
2538.50,572.00
2539.70,83.00
2540.89,378.00
2542.08,49.00
2543.28,8.00
2544.47,446.00
2545.67,210.00
2546.86,101.00
2548.05,1084.00
2549.25,487.00
2550.44,956.00
2551.63,61.00
2552.82,332.00
2554.02,296.00
2555.21,258.00
2556.40,492.00
2557.59,679.00
2558.78,893.00
2559.97,625.00
2561.16,893.00
2562.35,-336.00
2563.54,31.00
2564.73,260.00
2565.92,444.00
2567.11,73.00
2568.30,215.00
2569.49,574.00
2570.68,675.00
2571.87,587.00
2573.06,401.00
2574.25,425.00
2575.43,1238.00
2576.62,906.00
2577.81,571.00
2579.00,409.00
2580.18,839.00
2581.37,-178.00
2582.56,193.00
2583.74,1034.00
2584.93,559.00
2586.11,569.00
2587.30,252.00
2588.48,720.00
2589.67,-12.00
2590.85,748.00
2592.04,963.00
2593.22,550.00
2594.41,568.00
2595.59,585.00
2596.78,821.00
2597.96,173.00
2599.14,818.00
2600.33,778.00
2601.51,162.00
2602.69,704.00
2603.87,373.00
2605.06,480.00
2606.24,680.00
2607.42,792.00
2608.60,130.00
2609.78,680.00
2610.96,100.00
2612.14,364.00
2613.33,-654.00
2614.51,-227.00
2615.69,104.00
2616.87,458.00
2618.05,632.00
2619.23,446.00
2620.40,-301.00
2621.58,452.00
2622.76,12.00
2623.94,394.00
2625.12,826.00
2626.30,108.00
2627.48,414.00
2628.65,1076.00
2629.83,482.00
2631.01,437.00
2632.19,692.00
2633.36,413.00
2634.54,214.00
2635.72,436.00
2636.89,340.00
2638.07,314.00
2639.25,500.00
2640.42,1122.00
2641.60,-270.00
2642.77,530.00
2643.95,469.00
2645.12,557.00
2646.30,517.00
2647.47,779.00
2648.65,337.00
2649.82,674.00
2650.99,376.00
2652.17,-47.00
2653.34,-226.00
2654.52,124.00
2655.69,-97.00
2656.86,127.00
2658.03,-187.00
2659.21,-230.00
2660.38,78.00
2661.55,1127.00
2662.72,56.00
2663.89,67.00
2665.07,524.00
2666.24,110.00
2667.41,126.00
2668.58,679.00
2669.75,523.00
2670.92,807.00
2672.09,138.00
2673.26,1032.00
2674.43,722.00
2675.60,-87.00
2676.77,584.00
2677.94,160.00
2679.11,-207.00
2680.28,116.00
2681.45,569.00
2682.62,262.00
2683.78,681.00
2684.95,532.00
2686.12,590.00
2687.29,-22.00
2688.46,906.00
2689.62,569.00
2690.79,312.00
2691.96,404.00
2693.12,339.00
2694.29,788.00
2695.46,386.00
2696.62,211.00
2697.79,498.00
2698.96,386.00
2700.12,487.00
2701.29,28.00
2702.45,591.00
2703.62,-35.00
2704.78,720.00
2705.95,576.00
2707.11,227.00
2708.28,72.00
2709.44,1222.00
2710.61,702.00
2711.77,987.00
2712.93,249.00
2714.10,441.00
2715.26,624.00
2716.42,995.00
2717.59,454.00
2718.75,29.00
2719.91,143.00
2721.07,75.00
2722.24,443.00
2723.40,137.00
2724.56,806.00
2725.72,135.00
2726.88,526.00
2728.05,446.00
2729.21,485.00
2730.37,343.00
2731.53,-301.00
2732.69,187.00
2733.85,-300.00
2735.01,718.00
2736.17,67.00
2737.33,-464.00
2738.49,356.00
2739.65,474.00
2740.81,673.00
2741.97,78.00
2743.13,602.00
2744.29,882.00
2745.45,549.00
2746.60,912.00
2747.76,547.00
2748.92,319.00
2750.08,-336.00
2751.24,468.00
2752.40,372.00
2753.55,358.00
2754.71,-209.00
2755.87,-99.00
2757.03,-95.00
2758.18,127.00
2759.34,273.00
2760.50,543.00
2761.65,902.00
2762.81,361.00
2763.96,378.00
2765.12,425.00
2766.28,404.00
2767.43,256.00
2768.59,776.00
2769.74,-168.00
2770.90,586.00
2772.05,536.00
2773.21,114.00
2774.36,619.00
2775.52,0.00
2776.67,0.00
2777.83,0.00
2778.98,0.00
2780.13,0.00
