ENLIGHTEN Version,1.6.8
Measurement ID,20190528-092945-936479-WP-00169
Serial Number,WP-00169
Label,Cyclohexane
Integration Time,200
Timestamp,2019-05-28 09:29:45.936479
Note,
Temperature,-99
CCD C0,843.7628784179688
CCD C1,0.150859996676445
CCD C2,-7.925799764052499e-06
CCD C3,-8.2813995661013e-09
CCD Offset,0
CCD Gain,1.9
Laser Wavelength,830.0
Laser Enable,False
Laser Power,100.0
Laser Temperature,-99
Pixel Count,1024

Wavenumber,Processed
196.52,13.00
198.64,48.00
200.76,44.00
202.87,46.00
204.99,40.00
207.10,63.00
209.22,74.00
211.33,59.00
213.44,51.00
215.55,70.00
217.66,82.00
219.77,84.00
221.88,83.00
223.99,89.00
226.09,110.00
228.20,114.00
230.30,114.00
232.40,84.00
234.51,104.00
236.61,139.00
238.71,104.00
240.80,125.00
242.90,85.00
245.00,100.00
247.10,133.00
249.19,102.00
251.28,91.00
253.38,78.00
255.47,102.00
257.56,88.00
259.65,78.00
261.74,63.00
263.83,71.00
265.92,92.00
268.00,72.00
270.09,78.00
272.17,56.00
274.25,55.00
276.34,53.00
278.42,47.00
280.50,54.00
282.58,44.00
284.65,65.00
286.73,63.00
288.81,43.00
290.88,50.00
292.96,61.00
295.03,65.00
297.10,39.00
299.18,44.00
301.25,47.00
303.32,42.00
305.38,36.00
307.45,38.00
309.52,40.00
311.58,40.00
313.65,52.00
315.71,40.00
317.77,47.00
319.84,40.00
321.90,72.00
323.96,44.00
326.01,44.00
328.07,33.00
330.13,59.00
332.18,42.00
334.24,58.00
336.29,59.00
338.35,42.00
340.40,93.00
342.45,61.00
344.50,67.00
346.55,64.00
348.59,107.00
350.64,87.00
352.69,106.00
354.73,124.00
356.78,135.00
358.82,173.00
360.86,177.00
362.90,192.00
364.94,236.00
366.98,310.00
369.02,363.00
371.06,471.00
373.09,599.00
375.13,784.00
377.16,1009.00
379.19,1221.00
381.23,1427.00
383.26,1503.00
385.29,1480.00
387.32,1303.00
389.34,1065.00
391.37,805.00
393.40,580.00
395.42,468.00
397.45,409.00
399.47,329.00
401.49,308.00
403.51,346.00
405.53,348.00
407.55,340.00
409.57,415.00
411.59,501.00
413.61,567.00
415.62,711.00
417.64,936.00
419.65,1214.00
421.66,1526.00
423.67,1876.00
425.68,2031.00
427.69,2056.00
429.70,1861.00
431.71,1541.00
433.71,1153.00
435.72,870.00
437.72,668.00
439.73,537.00
441.73,452.00
443.73,367.00
445.73,329.00
447.73,285.00
449.73,262.00
451.73,258.00
453.73,230.00
455.72,217.00
457.72,197.00
459.71,213.00
461.70,193.00
463.69,181.00
465.69,181.00
467.68,222.00
469.66,236.00
471.65,239.00
473.64,246.00
475.62,261.00
477.61,284.00
479.59,255.00
481.58,236.00
483.56,204.00
485.54,194.00
487.52,186.00
489.50,137.00
491.48,108.00
493.45,109.00
495.43,134.00
497.40,107.00
499.38,89.00
501.35,74.00
503.32,90.00
505.29,58.00
507.26,99.00
509.23,99.00
511.20,80.00
513.17,101.00
515.13,90.00
517.10,95.00
519.06,81.00
521.03,119.00
522.99,118.00
524.95,89.00
526.91,89.00
528.87,81.00
530.83,112.00
532.79,78.00
534.74,49.00
536.70,67.00
538.65,80.00
540.61,57.00
542.56,42.00
544.51,40.00
546.46,44.00
548.41,66.00
550.36,59.00
552.30,26.00
554.25,38.00
556.20,48.00
558.14,34.00
560.08,21.00
562.03,33.00
563.97,31.00
565.91,40.00
567.85,44.00
569.79,23.00
571.73,26.00
573.66,24.00
575.60,40.00
577.53,16.00
579.47,30.00
581.40,33.00
583.33,36.00
585.26,17.00
587.19,21.00
589.12,27.00
591.05,40.00
592.97,38.00
594.90,11.00
596.83,42.00
598.75,22.00
600.67,49.00
602.59,48.00
604.51,40.00
606.43,0.00
608.35,44.00
610.27,42.00
612.19,23.00
614.10,32.00
616.02,32.00
617.93,66.00
619.85,61.00
621.76,38.00
623.67,42.00
625.58,68.00
627.49,59.00
629.40,26.00
631.30,14.00
633.21,27.00
635.12,39.00
637.02,61.00
638.92,32.00
640.83,14.00
642.73,42.00
644.63,11.00
646.53,19.00
648.42,37.00
650.32,49.00
652.22,25.00
654.11,40.00
656.01,27.00
657.90,34.00
659.79,42.00
661.68,36.00
663.58,38.00
665.46,34.00
667.35,15.00
669.24,27.00
671.13,8.00
673.01,59.00
674.90,13.00
676.78,25.00
678.66,31.00
680.54,23.00
682.43,19.00
684.31,-7.00
686.18,21.00
688.06,29.00
689.94,17.00
691.81,17.00
693.69,33.00
695.56,13.00
697.43,25.00
699.31,32.00
701.18,7.00
703.05,34.00
704.92,25.00
706.78,36.00
708.65,35.00
710.52,33.00
712.38,53.00
714.25,51.00
716.11,27.00
717.97,62.00
719.83,62.00
721.69,61.00
723.55,61.00
725.41,71.00
727.27,84.00
729.12,88.00
730.98,85.00
732.83,92.00
734.68,68.00
736.54,83.00
738.39,127.00
740.24,97.00
742.09,104.00
743.93,143.00
745.78,145.00
747.63,148.00
749.47,190.00
751.32,198.00
753.16,238.00
755.00,236.00
756.84,260.00
758.68,297.00
760.52,316.00
762.36,357.00
764.20,400.00
766.04,432.00
767.87,447.00
769.71,523.00
771.54,540.00
773.37,597.00
775.20,694.00
777.03,782.00
778.86,871.00
780.69,1050.00
782.52,1206.00
784.35,1411.00
786.17,1613.00
788.00,1948.00
789.82,2406.00
791.64,3274.00
793.46,4895.00
795.28,8161.00
797.10,14762.00
798.92,24018.00
800.74,31216.00
802.56,34084.00
804.37,32987.00
806.19,27135.00
808.00,17553.00
809.82,9580.00
811.63,5041.00
813.44,2994.00
815.25,1988.00
817.06,1488.00
818.86,1154.00
820.67,955.00
822.48,801.00
824.28,686.00
826.09,611.00
827.89,547.00
829.69,502.00
831.49,443.00
833.29,384.00
835.09,388.00
836.89,333.00
838.69,341.00
840.48,299.00
842.28,319.00
844.07,282.00
845.87,305.00
847.66,342.00
849.45,299.00
851.24,327.00
853.03,335.00
854.82,318.00
856.61,301.00
858.39,272.00
860.18,257.00
861.96,218.00
863.75,213.00
865.53,179.00
867.31,173.00
869.09,159.00
870.87,150.00
872.65,148.00
874.43,141.00
876.20,148.00
877.98,129.00
879.75,131.00
881.53,128.00
883.30,144.00
885.07,133.00
886.84,118.00
888.61,129.00
890.38,143.00
892.15,140.00
893.91,145.00
895.68,129.00
897.44,127.00
899.21,166.00
900.97,152.00
902.73,160.00
904.49,129.00
906.25,180.00
908.01,154.00
909.77,130.00
911.53,146.00
913.28,132.00
915.04,118.00
916.79,116.00
918.55,109.00
920.30,116.00
922.05,88.00
923.80,97.00
925.55,112.00
927.30,61.00
929.05,92.00
930.79,99.00
932.54,84.00
934.28,76.00
936.02,83.00
937.77,73.00
939.51,78.00
941.25,88.00
942.99,78.00
944.73,75.00
946.46,63.00
948.20,73.00
949.94,76.00
951.67,80.00
953.40,85.00
955.14,72.00
956.87,82.00
958.60,82.00
960.33,95.00
962.06,74.00
963.78,135.00
965.51,110.00
967.24,124.00
968.96,142.00
970.69,148.00
972.41,145.00
974.13,167.00
975.85,181.00
977.57,200.00
979.29,223.00
981.01,232.00
982.73,235.00
984.44,299.00
986.16,312.00
987.87,352.00
989.58,376.00
991.30,373.00
993.01,447.00
994.72,489.00
996.43,540.00
998.13,620.00
999.84,668.00
1001.55,760.00
1003.25,843.00
1004.96,1004.00
1006.66,1139.00
1008.36,1305.00
1010.06,1520.00
1011.76,1686.00
1013.46,2017.00
1015.16,2409.00
1016.86,2964.00
1018.56,3624.00
1020.25,4427.00
1021.95,5469.00
1023.64,6616.00
1025.33,7816.00
1027.02,8707.00
1028.71,9226.00
1030.40,9269.00
1032.09,8697.00
1033.78,7780.00
1035.47,6704.00
1037.15,5572.00
1038.84,4537.00
1040.52,3721.00
1042.20,3042.00
1043.89,2551.00
1045.57,2169.00
1047.25,1908.00
1048.93,1681.00
1050.60,1433.00
1052.28,1252.00
1053.96,1149.00
1055.63,990.00
1057.31,940.00
1058.98,795.00
1060.65,738.00
1062.32,685.00
1063.99,620.00
1065.66,544.00
1067.33,519.00
1069.00,469.00
1070.66,451.00
1072.33,415.00
1073.99,354.00
1075.66,352.00
1077.32,340.00
1078.98,335.00
1080.64,298.00
1082.30,297.00
1083.96,266.00
1085.62,259.00
1087.27,272.00
1088.93,259.00
1090.58,249.00
1092.24,251.00
1093.89,246.00
1095.54,230.00
1097.19,218.00
1098.84,218.00
1100.49,232.00
1102.14,249.00
1103.79,241.00
1105.43,242.00
1107.08,240.00
1108.72,270.00
1110.36,233.00
1112.01,202.00
1113.65,223.00
1115.29,228.00
1116.93,209.00
1118.56,195.00
1120.20,224.00
1121.84,192.00
1123.47,182.00
1125.11,169.00
1126.74,175.00
1128.37,156.00
1130.00,219.00
1131.63,202.00
1133.26,196.00
1134.89,219.00
1136.52,223.00
1138.14,253.00
1139.77,262.00
1141.39,289.00
1143.02,303.00
1144.64,346.00
1146.26,377.00
1147.88,434.00
1149.50,550.00
1151.12,704.00
1152.74,980.00
1154.36,1368.00
1155.97,1813.00
1157.59,2040.00
1159.20,2165.00
1160.81,2085.00
1162.42,1717.00
1164.04,1320.00
1165.65,892.00
1167.25,633.00
1168.86,453.00
1170.47,346.00
1172.08,274.00
1173.68,240.00
1175.28,208.00
1176.89,185.00
1178.49,148.00
1180.09,150.00
1181.69,149.00
1183.29,135.00
1184.89,124.00
1186.49,114.00
1188.08,107.00
1189.68,105.00
1191.27,104.00
1192.87,101.00
1194.46,112.00
1196.05,99.00
1197.64,118.00
1199.23,116.00
1200.82,112.00
1202.41,131.00
1203.99,124.00
1205.58,132.00
1207.16,141.00
1208.75,146.00
1210.33,164.00
1211.91,184.00
1213.49,152.00
1215.07,200.00
1216.65,202.00
1218.23,183.00
1219.81,223.00
1221.38,206.00
1222.96,237.00
1224.53,257.00
1226.11,262.00
1227.68,258.00
1229.25,317.00
1230.82,338.00
1232.39,367.00
1233.96,388.00
1235.52,411.00
1237.09,464.00
1238.66,539.00
1240.22,580.00
1241.78,605.00
1243.35,702.00
1244.91,807.00
1246.47,934.00
1248.03,1035.00
1249.59,1179.00
1251.14,1366.00
1252.70,1617.00
1254.26,1904.00
1255.81,2247.00
1257.36,2726.00
1258.92,3265.00
1260.47,3954.00
1262.02,4729.00
1263.57,5538.00
1265.12,6114.00
1266.67,6625.00
1268.21,6742.00
1269.76,6571.00
1271.31,5998.00
1272.85,5348.00
1274.39,4634.00
1275.93,3972.00
1277.48,3339.00
1279.02,2802.00
1280.56,2408.00
1282.09,2034.00
1283.63,1766.00
1285.17,1528.00
1286.70,1349.00
1288.24,1182.00
1289.77,1042.00
1291.30,950.00
1292.84,860.00
1294.37,776.00
1295.90,714.00
1297.42,624.00
1298.95,609.00
1300.48,550.00
1302.00,527.00
1303.53,480.00
1305.05,478.00
1306.58,409.00
1308.10,426.00
1309.62,428.00
1311.14,390.00
1312.66,362.00
1314.18,353.00
1315.69,352.00
1317.21,357.00
1318.72,367.00
1320.24,342.00
1321.75,373.00
1323.26,371.00
1324.78,354.00
1326.29,392.00
1327.80,413.00
1329.30,468.00
1330.81,457.00
1332.32,508.00
1333.82,537.00
1335.33,553.00
1336.83,641.00
1338.33,718.00
1339.84,784.00
1341.34,885.00
1342.84,970.00
1344.34,1062.00
1345.83,1147.00
1347.33,1185.00
1348.83,1196.00
1350.32,1200.00
1351.82,1149.00
1353.31,1052.00
1354.80,985.00
1356.29,911.00
1357.78,753.00
1359.27,666.00
1360.76,603.00
1362.25,531.00
1363.73,466.00
1365.22,403.00
1366.70,362.00
1368.19,314.00
1369.67,299.00
1371.15,293.00
1372.63,286.00
1374.11,248.00
1375.59,253.00
1377.07,253.00
1378.54,243.00
1380.02,235.00
1381.49,245.00
1382.97,228.00
1384.44,238.00
1385.91,242.00
1387.38,236.00
1388.85,272.00
1390.32,230.00
1391.79,253.00
1393.26,249.00
1394.72,268.00
1396.19,276.00
1397.65,274.00
1399.12,308.00
1400.58,310.00
1402.04,324.00
1403.50,352.00
1404.96,367.00
1406.42,411.00
1407.88,443.00
1409.33,472.00
1410.79,529.00
1412.24,565.00
1413.70,616.00
1415.15,688.00
1416.60,808.00
1418.05,856.00
1419.50,976.00
1420.95,1126.00
1422.40,1258.00
1423.84,1398.00
1425.29,1581.00
1426.74,1705.00
1428.18,1838.00
1429.62,2112.00
1431.06,2218.00
1432.51,2490.00
1433.95,2754.00
1435.39,3087.00
1436.82,3559.00
1438.26,3995.00
1439.70,4573.00
1441.13,5138.00
1442.57,5639.00
1444.00,5977.00
1445.43,6125.00
1446.86,6050.00
1448.30,5743.00
1449.72,5317.00
1451.15,4786.00
1452.58,4201.00
1454.01,3714.00
1455.43,3202.00
1456.86,2813.00
1458.28,2477.00
1459.71,2201.00
1461.13,1982.00
1462.55,1874.00
1463.97,1722.00
1465.39,1636.00
1466.81,1543.00
1468.22,1467.00
1469.64,1318.00
1471.06,1208.00
1472.47,1057.00
1473.88,943.00
1475.30,881.00
1476.71,776.00
1478.12,719.00
1479.53,660.00
1480.94,639.00
1482.34,611.00
1483.75,591.00
1485.16,557.00
1486.56,535.00
1487.96,529.00
1489.37,471.00
1490.77,455.00
1492.17,437.00
1493.57,392.00
1494.97,362.00
1496.37,331.00
1497.76,300.00
1499.16,297.00
1500.56,268.00
1501.95,255.00
1503.34,248.00
1504.74,207.00
1506.13,194.00
1507.52,171.00
1508.91,173.00
1510.30,148.00
1511.68,150.00
1513.07,133.00
1514.46,138.00
1515.84,125.00
1517.22,116.00
1518.61,110.00
1519.99,95.00
1521.37,93.00
1522.75,84.00
1524.13,93.00
1525.51,90.00
1526.88,87.00
1528.26,86.00
1529.63,84.00
1531.01,82.00
1532.38,91.00
1533.75,78.00
1535.13,86.00
1536.50,82.00
1537.87,92.00
1539.23,92.00
1540.60,84.00
1541.97,93.00
1543.33,86.00
1544.70,76.00
1546.06,78.00
1547.42,65.00
1548.79,51.00
1550.15,60.00
1551.51,66.00
1552.87,44.00
1554.22,41.00
1555.58,47.00
1556.94,54.00
1558.29,41.00
1559.65,55.00
1561.00,67.00
1562.35,42.00
1563.70,55.00
1565.05,66.00
1566.40,53.00
1567.75,63.00
1569.10,57.00
1570.45,56.00
1571.79,48.00
1573.14,67.00
1574.48,60.00
1575.82,48.00
1577.16,61.00
1578.50,57.00
1579.84,67.00
1581.18,55.00
1582.52,56.00
1583.86,46.00
1585.19,36.00
1586.53,48.00
1587.86,55.00
1589.20,36.00
1590.53,32.00
1591.86,42.00
1593.19,40.00
1594.52,25.00
1595.85,36.00
1597.18,27.00
1598.50,29.00
1599.83,19.00
1601.15,19.00
1602.48,21.00
1603.80,15.00
1605.12,26.00
1606.44,29.00
1607.76,19.00
1609.08,19.00
1610.40,16.00
1611.72,15.00
1613.03,5.00
1614.35,15.00
1615.66,11.00
1616.97,13.00
1618.29,16.00
1619.60,2.00
1620.91,6.00
1622.22,7.00
1623.53,15.00
1624.83,15.00
1626.14,8.00
1627.45,21.00
1628.75,25.00
1630.05,8.00
1631.36,8.00
1632.66,19.00
1633.96,15.00
1635.26,12.00
1636.56,11.00
1637.86,17.00
1639.15,16.00
1640.45,12.00
1641.74,13.00
1643.04,1.00
1644.33,15.00
1645.62,22.00
1646.92,12.00
1648.21,13.00
1649.50,8.00
1650.78,8.00
1652.07,8.00
1653.36,16.00
1654.64,29.00
1655.93,7.00
1657.21,17.00
1658.50,10.00
1659.78,10.00
1661.06,29.00
1662.34,9.00
1663.62,19.00
1664.90,26.00
1666.17,24.00
1667.45,27.00
1668.72,17.00
1670.00,22.00
1671.27,23.00
1672.54,27.00
1673.82,38.00
1675.09,37.00
1676.36,22.00
1677.62,42.00
1678.89,40.00
1680.16,40.00
1681.42,49.00
1682.69,49.00
1683.95,50.00
1685.22,39.00
1686.48,59.00
1687.74,59.00
1689.00,51.00
1690.26,65.00
1691.52,51.00
1692.77,63.00
1694.03,50.00
1695.28,70.00
1696.54,54.00
1697.79,44.00
1699.04,53.00
1700.30,30.00
1701.55,44.00
1702.80,47.00
1704.04,32.00
1705.29,26.00
1706.54,38.00
1707.78,35.00
1709.03,17.00
1710.27,28.00
1711.52,19.00
1712.76,25.00
1714.00,33.00
1715.24,24.00
1716.48,30.00
1717.72,27.00
1718.95,23.00
1720.19,31.00
1721.43,28.00
1722.66,22.00
1723.89,30.00
1725.13,36.00
1726.36,11.00
1727.59,26.00
1728.82,17.00
1730.05,15.00
1731.28,8.00
1732.50,19.00
1733.73,17.00
1734.95,9.00
1736.18,6.00
1737.40,13.00
1738.62,19.00
1739.84,23.00
1741.06,16.00
1742.28,17.00
1743.50,19.00
1744.72,-2.00
1745.94,24.00
1747.15,0.00
1748.37,17.00
1749.58,26.00
1750.79,2.00
1752.00,12.00
1753.21,8.00
1754.42,17.00
1755.63,8.00
1756.84,10.00
1758.05,15.00
1759.25,15.00
1760.46,-2.00
1761.66,17.00
1762.87,5.00
1764.07,8.00
1765.27,19.00
1766.47,21.00
1767.67,17.00
1768.87,17.00
1770.07,23.00
1771.26,13.00
1772.46,15.00
1773.65,32.00
1774.85,27.00
1776.04,15.00
1777.23,19.00
1778.42,7.00
1779.61,17.00
1780.80,16.00
1781.99,11.00
1783.18,11.00
1784.36,6.00
1785.55,15.00
1786.73,21.00
1787.92,6.00
1789.10,19.00
1790.28,19.00
1791.46,-7.00
1792.64,23.00
1793.82,24.00
1795.00,1.00
1796.17,10.00
1797.35,9.00
1798.52,5.00
1799.70,18.00
1800.87,6.00
1802.04,11.00
1803.21,3.00
1804.38,30.00
1805.55,25.00
1806.72,29.00
1807.89,21.00
1809.05,11.00
1810.22,19.00
1811.38,34.00
1812.55,21.00
1813.71,29.00
1814.87,30.00
1816.03,11.00
1817.19,15.00
1818.35,21.00
1819.51,17.00
1820.67,11.00
1821.82,13.00
1822.98,4.00
1824.13,8.00
1825.28,24.00
1826.44,36.00
1827.59,2.00
1828.74,6.00
1829.89,15.00
1831.04,8.00
1832.18,23.00
1833.33,15.00
1834.48,21.00
1835.62,15.00
1836.76,19.00
1837.91,12.00
1839.05,21.00
1840.19,9.00
1841.33,24.00
1842.47,21.00
1843.61,19.00
1844.74,19.00
1845.88,19.00
1847.01,8.00
1848.15,16.00
1849.28,42.00
1850.41,15.00
1851.55,7.00
1852.68,19.00
1853.81,8.00
