ENLIGHTEN Version,1.6.8
Measurement ID,20190528-082044-743214-WP-00391
Serial Number,WP-00391
Label,Ethanol
Integration Time,500
Timestamp,2019-05-28 08:20:44.743214
Note,
Temperature,-99
CCD C0,789.0726928710938
CCD C1,0.16069164872169495
CCD C2,5.064120159659069e-06
CCD C3,-4.444800083547307e-09
CCD Offset,0
CCD Gain,1.9
Laser Wavelength,785.0
Laser Enable,False
Laser Power,100.0
Laser Temperature,-99
Pixel Count,2048

Wavenumber,Processed
65.75,190.00
68.33,253.00
70.91,220.00
73.49,195.00
76.07,222.00
78.64,228.00
81.22,229.00
83.79,239.00
86.37,224.00
88.94,245.00
91.51,237.00
94.09,254.00
96.66,243.00
99.23,253.00
101.79,258.00
104.36,224.00
106.93,302.00
109.50,268.00
112.06,298.00
114.63,275.00
117.19,281.00
119.75,308.00
122.31,285.00
124.87,328.00
127.43,291.00
129.99,332.00
132.55,321.00
135.11,327.00
137.66,346.00
140.22,310.00
142.78,345.00
145.33,321.00
147.88,357.00
150.43,376.00
152.98,338.00
155.53,358.00
158.08,359.00
160.63,389.00
163.18,383.00
165.73,376.00
168.27,404.00
170.82,391.00
173.36,404.00
175.90,406.00
178.45,396.00
180.99,437.00
183.53,395.00
186.07,461.00
188.61,439.00
191.14,437.00
193.68,439.00
196.22,450.00
198.75,481.00
201.29,406.00
203.82,467.00
206.35,459.00
208.88,491.00
211.41,437.00
213.94,462.00
216.47,439.00
219.00,448.00
221.53,435.00
224.05,431.00
226.58,399.00
229.10,448.00
231.63,397.00
234.15,426.00
236.67,391.00
239.19,410.00
241.71,410.00
244.23,389.00
246.75,397.00
249.27,403.00
251.78,391.00
254.30,378.00
256.81,412.00
259.33,412.00
261.84,378.00
264.35,392.00
266.86,395.00
269.38,397.00
271.88,373.00
274.39,378.00
276.90,360.00
279.41,329.00
281.91,319.00
284.42,342.00
286.92,328.00
289.43,280.00
291.93,248.00
294.43,279.00
296.93,212.00
299.43,197.00
301.93,180.00
304.43,182.00
306.92,176.00
309.42,135.00
311.91,150.00
314.41,156.00
316.90,144.00
319.39,142.00
321.89,119.00
324.38,127.00
326.87,87.00
329.36,138.00
331.84,114.00
334.33,118.00
336.82,101.00
339.30,88.00
341.79,112.00
344.27,108.00
346.75,133.00
349.24,100.00
351.72,113.00
354.20,144.00
356.68,127.00
359.16,132.00
361.63,114.00
364.11,127.00
366.59,120.00
369.06,125.00
371.53,156.00
374.01,167.00
376.48,167.00
378.95,161.00
381.42,184.00
383.89,203.00
386.36,209.00
388.83,229.00
391.29,224.00
393.76,283.00
396.23,289.00
398.69,355.00
401.15,392.00
403.62,404.00
406.08,509.00
408.54,541.00
411.00,636.00
413.46,765.00
415.91,949.00
418.37,1127.00
420.83,1433.00
423.28,1777.00
425.74,2085.00
428.19,2349.00
430.64,2557.00
433.10,2516.00
435.55,2430.00
438.00,2278.00
440.45,2019.00
442.90,1863.00
445.34,1599.00
447.79,1519.00
450.24,1297.00
452.68,1170.00
455.12,941.00
457.57,828.00
460.01,780.00
462.45,642.00
464.89,594.00
467.33,509.00
469.77,442.00
472.21,398.00
474.64,277.00
477.08,306.00
479.52,243.00
481.95,247.00
484.38,196.00
486.82,178.00
489.25,167.00
491.68,139.00
494.11,180.00
496.54,138.00
498.96,130.00
501.39,88.00
503.82,112.00
506.24,120.00
508.67,96.00
511.09,80.00
513.52,81.00
515.94,112.00
518.36,84.00
520.78,87.00
523.20,76.00
525.62,70.00
528.03,83.00
530.45,86.00
532.87,74.00
535.28,93.00
537.69,66.00
540.11,52.00
542.52,59.00
544.93,80.00
547.34,59.00
549.75,13.00
552.16,88.00
554.57,51.00
556.98,46.00
559.38,38.00
561.79,40.00
564.19,97.00
566.59,30.00
569.00,64.00
571.40,65.00
573.80,73.00
576.20,74.00
578.60,47.00
581.00,74.00
583.39,74.00
585.79,68.00
588.19,76.00
590.58,57.00
592.98,72.00
595.37,41.00
597.76,76.00
600.15,61.00
602.54,74.00
604.93,64.00
607.32,58.00
609.71,66.00
612.09,87.00
614.48,54.00
616.87,40.00
619.25,51.00
621.63,86.00
624.02,63.00
626.40,84.00
628.78,50.00
631.16,87.00
633.54,61.00
635.91,80.00
638.29,90.00
640.67,66.00
643.04,72.00
645.42,85.00
647.79,99.00
650.16,93.00
652.54,42.00
654.91,110.00
657.28,95.00
659.65,83.00
662.02,95.00
664.38,78.00
666.75,104.00
669.12,53.00
671.48,108.00
673.84,85.00
676.21,79.00
678.57,101.00
680.93,89.00
683.29,99.00
685.65,80.00
688.01,103.00
690.37,41.00
692.73,85.00
695.08,97.00
697.44,57.00
699.79,73.00
702.14,70.00
704.50,104.00
706.85,89.00
709.20,62.00
711.55,106.00
713.90,53.00
716.25,126.00
718.60,95.00
720.94,77.00
723.29,70.00
725.63,74.00
727.98,118.00
730.32,68.00
732.66,87.00
735.00,66.00
737.34,85.00
739.68,108.00
742.02,59.00
744.36,76.00
746.70,57.00
749.03,103.00
751.37,72.00
753.70,71.00
756.04,101.00
758.37,84.00
760.70,112.00
763.03,114.00
765.36,127.00
767.69,108.00
770.02,68.00
772.35,110.00
774.67,110.00
777.00,133.00
779.32,150.00
781.65,128.00
783.97,158.00
786.29,163.00
788.61,165.00
790.93,172.00
793.25,199.00
795.57,225.00
797.89,231.00
800.21,302.00
802.52,274.00
804.84,312.00
807.15,319.00
809.47,315.00
811.78,317.00
814.09,354.00
816.40,355.00
818.71,335.00
821.02,363.00
823.33,370.00
825.64,340.00
827.94,406.00
830.25,404.00
832.55,486.00
834.86,474.00
837.16,509.00
839.46,530.00
841.77,581.00
844.07,608.00
846.37,703.00
848.66,827.00
850.96,888.00
853.26,993.00
855.56,1167.00
857.85,1318.00
860.15,1579.00
862.44,1851.00
864.73,2344.00
867.02,3013.00
869.31,4027.00
871.60,5576.00
873.89,7945.00
876.18,11448.00
878.47,16089.00
880.76,20630.00
883.04,23357.00
885.33,23119.00
887.61,20193.00
889.89,16029.00
892.18,11693.00
894.46,8300.00
896.74,5798.00
899.02,4154.00
901.30,3128.00
903.58,2397.00
905.85,1994.00
908.13,1591.00
910.40,1401.00
912.68,1175.00
914.95,1034.00
917.23,917.00
919.50,765.00
921.77,727.00
924.04,622.00
926.31,616.00
928.58,537.00
930.84,530.00
933.11,464.00
935.38,410.00
937.64,399.00
939.91,369.00
942.17,381.00
944.43,332.00
946.69,338.00
948.95,342.00
951.21,281.00
953.47,327.00
955.73,254.00
957.99,275.00
960.25,295.00
962.50,296.00
964.76,288.00
967.01,254.00
969.26,287.00
971.51,277.00
973.77,317.00
976.02,272.00
978.27,273.00
980.51,321.00
982.76,296.00
985.01,357.00
987.26,330.00
989.50,370.00
991.75,381.00
993.99,400.00
996.23,439.00
998.47,469.00
1000.71,517.00
1002.95,505.00
1005.19,591.00
1007.43,648.00
1009.67,666.00
1011.91,757.00
1014.14,780.00
1016.38,850.00
1018.61,966.00
1020.84,1039.00
1023.08,1156.00
1025.31,1363.00
1027.54,1530.00
1029.77,1733.00
1032.00,1971.00
1034.23,2384.00
1036.45,2779.00
1038.68,3364.00
1040.91,4050.00
1043.13,4875.00
1045.35,5807.00
1047.58,6498.00
1049.80,7019.00
1052.02,7383.00
1054.24,7293.00
1056.46,6804.00
1058.68,6162.00
1060.90,5395.00
1063.11,4649.00
1065.33,4062.00
1067.55,3791.00
1069.76,3520.00
1071.97,3472.00
1074.19,3417.00
1076.40,3619.00
1078.61,3717.00
1080.82,4068.00
1083.03,4429.00
1085.24,4818.00
1087.44,5432.00
1089.65,6043.00
1091.86,6737.00
1094.06,7203.00
1096.27,7523.00
1098.47,7411.00
1100.67,6889.00
1102.87,6189.00
1105.07,5330.00
1107.27,4588.00
1109.47,3929.00
1111.67,3554.00
1113.87,3271.00
1116.07,2984.00
1118.26,2793.00
1120.46,2652.00
1122.65,2548.00
1124.84,2322.00
1127.04,2134.00
1129.23,1927.00
1131.42,1714.00
1133.61,1511.00
1135.80,1325.00
1137.98,1219.00
1140.17,1110.00
1142.36,991.00
1144.54,949.00
1146.73,836.00
1148.91,782.00
1151.09,764.00
1153.28,712.00
1155.46,651.00
1157.64,613.00
1159.82,615.00
1162.00,549.00
1164.17,511.00
1166.35,465.00
1168.53,404.00
1170.70,406.00
1172.88,376.00
1175.05,393.00
1177.22,349.00
1179.40,332.00
1181.57,332.00
1183.74,283.00
1185.91,326.00
1188.07,325.00
1190.24,334.00
1192.41,325.00
1194.57,298.00
1196.74,290.00
1198.90,286.00
1201.07,276.00
1203.23,296.00
1205.39,304.00
1207.55,300.00
1209.71,273.00
1211.87,328.00
1214.03,332.00
1216.19,348.00
1218.34,340.00
1220.50,398.00
1222.66,405.00
1224.81,444.00
1226.96,448.00
1229.11,476.00
1231.27,501.00
1233.42,509.00
1235.57,589.00
1237.72,620.00
1239.86,674.00
1242.01,668.00
1244.16,710.00
1246.30,773.00
1248.45,851.00
1250.59,925.00
1252.74,1038.00
1254.88,1074.00
1257.02,1260.00
1259.16,1357.00
1261.30,1562.00
1263.44,1845.00
1265.58,2114.00
1267.71,2511.00
1269.85,2904.00
1271.99,3313.00
1274.12,3558.00
1276.25,3641.00
1278.39,3603.00
1280.52,3370.00
1282.65,2954.00
1284.78,2537.00
1286.91,2231.00
1289.04,1946.00
1291.17,1662.00
1293.30,1534.00
1295.42,1299.00
1297.55,1213.00
1299.67,1126.00
1301.80,1056.00
1303.92,978.00
1306.04,911.00
1308.16,881.00
1310.28,892.00
1312.40,877.00
1314.52,877.00
1316.64,807.00
1318.76,813.00
1320.87,781.00
1322.99,779.00
1325.10,750.00
1327.22,727.00
1329.33,704.00
1331.44,742.00
1333.55,745.00
1335.66,732.00
1337.77,743.00
1339.88,734.00
1341.99,687.00
1344.10,752.00
1346.20,771.00
1348.31,757.00
1350.41,771.00
1352.52,782.00
1354.62,805.00
1356.72,828.00
1358.82,898.00
1360.92,828.00
1363.02,926.00
1365.12,997.00
1367.22,1034.00
1369.31,1060.00
1371.41,1122.00
1373.51,1177.00
1375.60,1217.00
1377.69,1341.00
1379.79,1439.00
1381.88,1467.00
1383.97,1547.00
1386.06,1532.00
1388.15,1534.00
1390.24,1637.00
1392.33,1612.00
1394.41,1648.00
1396.50,1707.00
1398.59,1775.00
1400.67,1817.00
1402.75,1819.00
1404.84,1901.00
1406.92,2022.00
1409.00,2202.00
1411.08,2242.00
1413.16,2405.00
1415.24,2462.00
1417.32,2572.00
1419.39,2718.00
1421.47,2796.00
1423.54,2992.00
1425.62,3129.00
1427.69,3311.00
1429.77,3569.00
1431.84,3771.00
1433.91,4095.00
1435.98,4529.00
1438.05,4937.00
1440.12,5570.00
1442.19,6165.00
1444.25,6914.00
1446.32,7706.00
1448.38,8552.00
1450.45,9165.00
1452.51,9726.00
1454.58,9874.00
1456.64,9598.00
1458.70,9034.00
1460.76,8133.00
1462.82,7294.00
1464.88,6348.00
1466.94,5663.00
1468.99,5189.00
1471.05,4714.00
1473.10,4464.00
1475.16,4389.00
1477.21,4308.00
1479.27,4312.00
1481.32,4243.00
1483.37,4232.00
1485.42,3989.00
1487.47,3769.00
1489.52,3425.00
1491.57,3098.00
1493.61,2832.00
1495.66,2464.00
1497.71,2295.00
1499.75,2024.00
1501.79,1922.00
1503.84,1779.00
1505.88,1669.00
1507.92,1551.00
1509.96,1445.00
1512.00,1319.00
1514.04,1251.00
1516.08,1176.00
1518.12,1161.00
1520.15,1031.00
1522.19,1020.00
1524.22,934.00
1526.26,910.00
1528.29,835.00
1530.32,813.00
1532.35,774.00
1534.38,744.00
1536.41,714.00
1538.44,651.00
1540.47,618.00
1542.50,572.00
1544.53,550.00
1546.55,545.00
1548.58,502.00
1550.60,505.00
1552.62,444.00
1554.65,435.00
1556.67,433.00
1558.69,382.00
1560.71,368.00
1562.73,353.00
1564.75,348.00
1566.76,338.00
1568.78,311.00
1570.80,331.00
1572.81,262.00
1574.83,258.00
1576.84,250.00
1578.85,163.00
1580.86,230.00
1582.88,158.00
1584.89,174.00
1586.89,160.00
1588.90,165.00
1590.91,183.00
1592.92,139.00
1594.92,156.00
1596.93,93.00
1598.93,154.00
1600.94,134.00
1602.94,119.00
1604.94,186.00
1606.94,140.00
1608.94,189.00
1610.94,116.00
1612.94,196.00
1614.94,144.00
1616.94,169.00
1618.93,137.00
1620.93,166.00
1622.92,148.00
1624.92,112.00
1626.91,157.00
1628.90,100.00
1630.89,57.00
1632.89,76.00
1634.88,38.00
1636.86,46.00
1638.85,70.00
1640.84,36.00
1642.83,57.00
1644.81,31.00
1646.80,34.00
1648.78,36.00
1650.76,59.00
1652.75,0.00
1654.73,10.00
1656.71,28.00
1658.69,37.00
1660.67,-20.00
1662.65,-19.00
1664.62,5.00
1666.60,-10.00
1668.58,22.00
1670.55,28.00
1672.53,36.00
1674.50,3.00
1676.47,-14.00
1678.45,21.00
1680.42,46.00
1682.39,8.00
1684.36,26.00
1686.32,12.00
1688.29,31.00
1690.26,9.00
1692.23,27.00
1694.19,23.00
1696.16,20.00
1698.12,9.00
1700.08,34.00
1702.05,38.00
1704.01,62.00
1705.97,13.00
1707.93,46.00
1709.89,25.00
1711.84,32.00
1713.80,38.00
1715.76,-17.00
1717.71,40.00
1719.67,13.00
1721.62,-23.00
1723.58,-2.00
1725.53,-51.00
1727.48,47.00
1729.43,-46.00
1731.38,-23.00
1733.33,13.00
1735.28,-31.00
1737.23,-11.00
1739.17,-27.00
1741.12,4.00
1743.06,-47.00
1745.01,-42.00
1746.95,-78.00
1748.90,-34.00
1750.84,-36.00
1752.78,-99.00
1754.72,-36.00
1756.66,-39.00
1758.60,-32.00
1760.54,-75.00
1762.47,-69.00
1764.41,-49.00
1766.35,-100.00
1768.28,-25.00
1770.21,-74.00
1772.15,-61.00
1774.08,-72.00
1776.01,-74.00
1777.94,-84.00
1779.87,-98.00
1781.80,-53.00
1783.73,-76.00
1785.66,-46.00
1787.58,-50.00
1789.51,-78.00
1791.44,-53.00
1793.36,-71.00
1795.28,-50.00
1797.21,-99.00
1799.13,-48.00
1801.05,-90.00
1802.97,-69.00
1804.89,-52.00
1806.81,-68.00
1808.73,-73.00
1810.64,-99.00
1812.56,-105.00
1814.48,-78.00
1816.39,-76.00
1818.30,-63.00
1820.22,-80.00
1822.13,-98.00
1824.04,-55.00
1825.95,-66.00
1827.86,-99.00
1829.77,-98.00
1831.68,-95.00
1833.59,-85.00
1835.49,-106.00
1837.40,-53.00
1839.31,-102.00
1841.21,-67.00
1843.11,-93.00
1845.02,-96.00
1846.92,-91.00
1848.82,-99.00
1850.72,-55.00
1852.62,-78.00
1854.52,-91.00
1856.42,-93.00
1858.31,-129.00
1860.21,-84.00
1862.11,-106.00
1864.00,-68.00
1865.89,-102.00
1867.79,-108.00
1869.68,-97.00
1871.57,-40.00
1873.46,-67.00
1875.35,-97.00
1877.24,-31.00
1879.13,-93.00
1881.02,-87.00
1882.91,-38.00
1884.79,-93.00
1886.68,-39.00
1888.56,-80.00
1890.45,-66.00
1892.33,-44.00
1894.21,-84.00
1896.09,-48.00
1897.97,-82.00
1899.85,-46.00
1901.73,-56.00
1903.61,-74.00
1905.49,-51.00
1907.36,-59.00
1909.24,-80.00
1911.11,-63.00
1912.99,0.00
1914.86,-52.00
1916.74,-85.00
1918.61,-49.00
1920.48,-71.00
1922.35,-51.00
1924.22,-74.00
1926.09,-114.00
1927.95,-61.00
1929.82,-76.00
1931.69,-55.00
1933.55,-45.00
1935.42,-57.00
1937.28,-91.00
1939.15,-72.00
1941.01,-59.00
1942.87,-55.00
1944.73,-48.00
1946.59,-76.00
1948.45,-61.00
1950.31,-43.00
1952.17,-73.00
1954.02,-43.00
1955.88,-68.00
1957.73,-78.00
1959.59,-49.00
1961.44,-64.00
1963.30,-53.00
1965.15,-58.00
1967.00,-34.00
1968.85,-49.00
1970.70,-49.00
1972.55,-47.00
1974.40,-64.00
1976.25,-61.00
1978.09,-39.00
1979.94,-49.00
1981.78,-70.00
1983.63,-42.00
1985.47,-41.00
1987.31,-83.00
1989.16,-44.00
1991.00,-44.00
1992.84,-17.00
1994.68,-80.00
1996.52,-46.00
1998.35,-48.00
2000.19,-43.00
2002.03,-21.00
2003.86,-68.00
2005.70,-57.00
2007.53,-36.00
2009.37,-70.00
2011.20,-38.00
2013.03,-64.00
2014.86,-48.00
2016.69,-84.00
2018.52,-59.00
2020.35,-21.00
2022.18,-55.00
2024.01,-61.00
2025.83,-78.00
2027.66,-59.00
2029.48,-32.00
2031.31,-63.00
2033.13,-36.00
2034.95,-57.00
2036.77,-43.00
2038.59,-28.00
2040.42,-74.00
2042.23,-57.00
2044.05,-52.00
2045.87,-49.00
2047.69,-63.00
2049.50,-42.00
2051.32,-43.00
2053.13,-43.00
2054.95,-21.00
2056.76,-38.00
2058.57,-30.00
2060.39,-29.00
2062.20,-53.00
2064.01,-19.00
2065.82,-36.00
2067.62,-21.00
2069.43,-6.00
2071.24,-25.00
2073.05,-24.00
2074.85,-19.00
2076.66,19.00
2078.46,12.00
2080.26,8.00
2082.06,10.00
2083.87,7.00
2085.67,44.00
2087.47,25.00
2089.27,21.00
2091.06,40.00
2092.86,21.00
2094.66,51.00
2096.45,3.00
2098.25,29.00
2100.04,2.00
2101.84,16.00
2103.63,-24.00
2105.42,-5.00
2107.22,34.00
2109.01,-31.00
2110.80,20.00
2112.59,-17.00
2114.37,0.00
2116.16,-11.00
2117.95,-8.00
2119.73,17.00
2121.52,-21.00
2123.30,27.00
2125.09,3.00
2126.87,3.00
2128.65,-2.00
2130.43,-40.00
2132.22,13.00
2134.00,-28.00
2135.77,-9.00
2137.55,-12.00
2139.33,-21.00
2141.11,6.00
2142.88,-19.00
2144.66,1.00
2146.43,10.00
2148.21,12.00
2149.98,-11.00
2151.75,-30.00
2153.52,21.00
2155.29,-8.00
2157.06,4.00
2158.83,9.00
2160.60,-9.00
2162.37,35.00
2164.14,5.00
2165.90,2.00
2167.67,-2.00
2169.43,2.00
2171.20,17.00
2172.96,3.00
2174.72,15.00
2176.48,-15.00
2178.24,23.00
2180.00,10.00
2181.76,17.00
2183.52,15.00
2185.28,0.00
2187.04,24.00
2188.79,17.00
2190.55,31.00
2192.30,5.00
2194.06,19.00
2195.81,24.00
2197.56,13.00
2199.31,27.00
2201.06,0.00
2202.81,24.00
2204.56,9.00
2206.31,-12.00
2208.06,8.00
2209.81,2.00
2211.55,33.00
2213.30,-4.00
2215.04,40.00
2216.79,15.00
2218.53,-16.00
2220.27,9.00
2222.01,22.00
2223.76,32.00
2225.50,31.00
2227.23,4.00
2228.97,34.00
2230.71,19.00
2232.45,29.00
2234.18,29.00
2235.92,14.00
2237.66,44.00
2239.39,34.00
2241.12,45.00
2242.86,36.00
2244.59,78.00
2246.32,59.00
2248.05,44.00
2249.78,92.00
2251.51,53.00
2253.23,84.00
2254.96,68.00
2256.69,66.00
2258.41,81.00
2260.14,56.00
2261.86,97.00
2263.59,63.00
2265.31,97.00
2267.03,65.00
2268.75,80.00
2270.47,89.00
2272.19,59.00
2273.91,91.00
2275.63,82.00
2277.35,115.00
2279.06,112.00
2280.78,82.00
2282.50,106.00
2284.21,82.00
2285.92,112.00
2287.64,86.00
2289.35,75.00
2291.06,102.00
2292.77,52.00
2294.48,97.00
2296.19,53.00
2297.90,86.00
2299.61,70.00
2301.31,48.00
2303.02,71.00
2304.72,47.00
2306.43,52.00
2308.13,67.00
2309.84,30.00
2311.54,62.00
2313.24,24.00
2314.94,66.00
2316.64,43.00
2318.34,53.00
2320.04,32.00
2321.74,55.00
2323.43,64.00
2325.13,25.00
2326.83,28.00
2328.52,25.00
2330.21,19.00
2331.91,30.00
2333.60,10.00
2335.29,36.00
2336.98,2.00
2338.67,56.00
2340.36,36.00
2342.05,22.00
2343.74,54.00
2345.43,21.00
2347.11,38.00
2348.80,21.00
2350.49,33.00
2352.17,31.00
2353.85,7.00
2355.54,31.00
2357.22,32.00
2358.90,40.00
2360.58,23.00
2362.26,47.00
2363.94,57.00
2365.62,-11.00
2367.30,14.00
2368.97,34.00
2370.65,13.00
2372.32,13.00
2374.00,6.00
2375.67,38.00
2377.35,15.00
2379.02,15.00
2380.69,8.00
2382.36,36.00
2384.03,31.00
2385.70,24.00
2387.37,27.00
2389.04,17.00
2390.70,44.00
2392.37,34.00
2394.04,40.00
2395.70,47.00
2397.37,25.00
2399.03,36.00
2400.69,19.00
2402.35,32.00
2404.02,52.00
2405.68,17.00
2407.34,54.00
2409.00,16.00
2410.65,53.00
2412.31,28.00
2413.97,53.00
2415.62,72.00
2417.28,27.00
2418.93,72.00
2420.59,46.00
2422.24,40.00
2423.89,55.00
2425.55,63.00
2427.20,79.00
2428.85,51.00
2430.50,55.00
2432.14,55.00
2433.79,70.00
2435.44,88.00
2437.09,53.00
2438.73,55.00
2440.38,74.00
2442.02,95.00
2443.66,70.00
2445.31,75.00
2446.95,74.00
2448.59,66.00
2450.23,85.00
2451.87,68.00
2453.51,85.00
2455.15,112.00
2456.79,63.00
2458.42,107.00
2460.06,109.00
2461.70,69.00
2463.33,99.00
2464.96,103.00
2466.60,120.00
2468.23,95.00
2469.86,109.00
2471.49,83.00
2473.12,110.00
2474.75,110.00
2476.38,93.00
2478.01,106.00
2479.64,91.00
2481.26,114.00
2482.89,91.00
2484.51,81.00
2486.14,130.00
2487.76,79.00
2489.39,111.00
2491.01,106.00
2492.63,114.00
2494.25,107.00
2495.87,67.00
2497.49,112.00
2499.11,101.00
2500.73,110.00
2502.34,75.00
2503.96,99.00
2505.57,122.00
2507.19,87.00
2508.80,133.00
2510.42,104.00
2512.03,131.00
2513.64,116.00
2515.25,122.00
2516.86,161.00
2518.47,148.00
2520.08,137.00
2521.69,150.00
2523.30,159.00
2524.91,180.00
2526.51,175.00
2528.12,194.00
2529.72,205.00
2531.33,215.00
2532.93,230.00
2534.53,203.00
2536.13,245.00
2537.73,226.00
2539.33,258.00
2540.93,268.00
2542.53,284.00
2544.13,243.00
2545.73,260.00
2547.32,294.00
2548.92,271.00
2550.52,282.00
2552.11,254.00
2553.70,239.00
2555.30,266.00
2556.89,213.00
2558.48,238.00
2560.07,217.00
2561.66,222.00
2563.25,238.00
2564.84,217.00
2566.43,217.00
2568.02,197.00
2569.60,215.00
2571.19,214.00
2572.77,216.00
2574.36,224.00
2575.94,218.00
2577.52,201.00
2579.11,238.00
2580.69,218.00
2582.27,213.00
2583.85,216.00
2585.43,222.00
2587.01,212.00
2588.58,241.00
2590.16,241.00
2591.74,201.00
2593.31,218.00
2594.89,201.00
2596.46,270.00
2598.04,257.00
2599.61,228.00
2601.18,215.00
2602.75,222.00
2604.32,220.00
2605.89,235.00
2607.46,216.00
2609.03,218.00
2610.60,209.00
2612.16,201.00
2613.73,214.00
2615.30,222.00
2616.86,203.00
2618.43,217.00
2619.99,209.00
2621.55,241.00
2623.11,224.00
2624.67,211.00
2626.24,228.00
2627.80,241.00
2629.35,215.00
2630.91,231.00
2632.47,236.00
2634.03,236.00
2635.58,253.00
2637.14,237.00
2638.69,229.00
2640.25,239.00
2641.80,246.00
2643.35,239.00
2644.91,236.00
2646.46,238.00
2648.01,258.00
2649.56,247.00
2651.11,298.00
2652.66,273.00
2654.20,258.00
2655.75,266.00
2657.30,262.00
2658.84,288.00
2660.39,296.00
2661.93,281.00
2663.47,294.00
2665.02,292.00
2666.56,307.00
2668.10,309.00
2669.64,329.00
2671.18,334.00
2672.72,336.00
2674.26,358.00
2675.79,379.00
2677.33,388.00
2678.87,408.00
2680.40,451.00
2681.94,463.00
2683.47,467.00
2685.01,512.00
2686.54,508.00
2688.07,575.00
2689.60,604.00
2691.13,628.00
2692.66,695.00
2694.19,759.00
2695.72,793.00
2697.25,879.00
2698.77,926.00
2700.30,1025.00
2701.83,1119.00
2703.35,1175.00
2704.87,1213.00
2706.40,1308.00
2707.92,1335.00
2709.44,1386.00
2710.96,1428.00
2712.48,1450.00
2714.00,1510.00
2715.52,1498.00
2717.04,1498.00
2718.56,1491.00
2720.08,1462.00
2721.59,1426.00
2723.11,1426.00
2724.62,1389.00
2726.14,1320.00
2727.65,1289.00
2729.16,1234.00
2730.68,1207.00
2732.19,1193.00
2733.70,1207.00
2735.21,1171.00
2736.72,1186.00
2738.23,1148.00
2739.73,1158.00
2741.24,1143.00
2742.75,1171.00
2744.25,1175.00
2745.76,1208.00
2747.26,1215.00
2748.77,1240.00
2750.27,1213.00
2751.77,1198.00
2753.27,1179.00
2754.77,1138.00
2756.27,1107.00
2757.77,1086.00
2759.27,1020.00
2760.77,998.00
2762.27,985.00
2763.76,934.00
2765.26,945.00
2766.76,909.00
2768.25,894.00
2769.74,854.00
2771.24,870.00
2772.73,822.00
2774.22,837.00
2775.71,811.00
2777.20,843.00
2778.69,845.00
2780.18,823.00
2781.67,846.00
2783.16,865.00
2784.64,834.00
2786.13,841.00
2787.61,843.00
2789.10,909.00
2790.58,887.00
2792.07,902.00
2793.55,926.00
2795.03,953.00
2796.51,991.00
2797.99,1016.00
2799.47,1035.00
2800.95,1071.00
2802.43,1127.00
2803.91,1137.00
2805.38,1158.00
2806.86,1278.00
2808.34,1293.00
2809.81,1331.00
2811.28,1386.00
2812.76,1434.00
2814.23,1500.00
2815.70,1542.00
2817.17,1593.00
2818.64,1697.00
2820.11,1733.00
2821.58,1834.00
2823.05,1902.00
2824.52,1976.00
2825.99,2041.00
2827.45,2100.00
2828.92,2228.00
2830.39,2275.00
2831.85,2353.00
2833.31,2424.00
2834.78,2494.00
2836.24,2632.00
2837.70,2687.00
2839.16,2806.00
2840.62,2829.00
2842.08,2987.00
2843.54,3090.00
2845.00,3180.00
2846.46,3267.00
2847.91,3433.00
2849.37,3526.00
2850.82,3752.00
2852.28,3924.00
2853.73,4145.00
2855.19,4338.00
2856.64,4565.00
2858.09,4855.00
2859.54,5247.00
2860.99,5568.00
2862.44,5984.00
2863.89,6472.00
2865.34,6942.00
2866.79,7488.00
2868.23,8004.00
2869.68,8547.00
2871.13,9134.00
2872.57,9654.00
2874.02,10090.00
2875.46,10290.00
2876.90,10418.00
2878.34,10536.00
2879.79,10489.00
2881.23,10498.00
2882.67,10223.00
2884.11,10177.00
2885.55,9934.00
2886.98,9633.00
2888.42,9412.00
2889.86,9215.00
2891.29,8966.00
2892.73,8640.00
2894.16,8505.00
2895.60,8224.00
2897.03,7980.00
2898.46,7734.00
2899.90,7704.00
2901.33,7425.00
2902.76,7320.00
2904.19,7374.00
2905.62,7305.00
2907.04,7311.00
2908.47,7402.00
2909.90,7499.00
2911.33,7795.00
2912.75,8203.00
2914.18,8580.00
2915.60,9058.00
2917.02,9743.00
2918.45,10390.00
2919.87,11207.00
2921.29,12099.00
2922.71,12890.00
2924.13,13676.00
2925.55,14173.00
2926.97,14544.00
2928.39,14580.00
2929.81,14366.00
2931.22,13952.00
2932.64,13228.00
2934.05,12456.00
2935.47,11641.00
2936.88,10790.00
2938.30,10064.00
2939.71,9232.00
2941.12,8589.00
2942.53,7884.00
2943.94,7265.00
2945.35,6780.00
2946.76,6256.00
2948.17,5826.00
2949.58,5489.00
2950.99,5217.00
2952.39,5058.00
2953.80,4904.00
2955.20,4815.00
2956.61,4853.00
2958.01,4829.00
2959.42,4938.00
2960.82,5048.00
2962.22,5201.00
2963.62,5471.00
2965.02,5604.00
2966.42,5902.00
2967.82,6028.00
2969.22,6149.00
2970.62,6223.00
2972.01,6234.00
2973.41,6166.00
2974.80,6147.00
2976.20,5906.00
2977.59,5707.00
2978.99,5356.00
2980.38,5018.00
2981.77,4675.00
2983.16,4281.00
2984.56,3958.00
2985.95,3647.00
2987.34,3339.00
2988.72,3050.00
2990.11,2810.00
2991.50,2568.00
2992.89,2404.00
2994.27,2195.00
2995.66,2037.00
2997.04,1887.00
2998.43,1794.00
2999.81,1684.00
3001.19,1570.00
3002.58,1454.00
3003.96,1392.00
3005.34,1310.00
3006.72,1258.00
3008.10,1192.00
3009.48,1132.00
3010.85,1065.00
3012.23,1008.00
3013.61,967.00
3014.98,946.00
3016.36,902.00
3017.73,881.00
3019.11,822.00
3020.48,794.00
3021.85,784.00
3023.23,757.00
3024.60,750.00
3025.97,690.00
3027.34,662.00
3028.71,649.00
3030.08,632.00
3031.44,607.00
3032.81,581.00
3034.18,535.00
3035.54,578.00
3036.91,530.00
3038.27,499.00
3039.64,501.00
3041.00,505.00
3042.36,491.00
3043.72,486.00
3045.09,461.00
3046.45,461.00
3047.81,427.00
3049.17,418.00
3050.52,415.00
3051.88,395.00
3053.24,393.00
3054.60,378.00
3055.95,400.00
3057.31,352.00
3058.66,366.00
3060.01,360.00
3061.37,363.00
3062.72,341.00
3064.07,313.00
3065.42,336.00
3066.77,305.00
3068.12,334.00
3069.47,298.00
3070.82,266.00
3072.17,274.00
3073.52,279.00
3074.86,281.00
3076.21,258.00
3077.55,252.00
3078.90,247.00
3080.24,240.00
3081.58,245.00
3082.93,238.00
3084.27,243.00
3085.61,234.00
3086.95,254.00
3088.29,213.00
3089.63,214.00
3090.97,184.00
3092.31,186.00
3093.64,222.00
3094.98,185.00
3096.31,211.00
3097.65,206.00
3098.98,186.00
3100.32,187.00
3101.65,173.00
3102.98,192.00
3104.32,176.00
3105.65,170.00
3106.98,157.00
3108.31,182.00
3109.64,175.00
3110.96,156.00
3112.29,169.00
3113.62,140.00
3114.95,151.00
3116.27,157.00
3117.60,159.00
3118.92,165.00
3120.24,173.00
3121.57,146.00
3122.89,167.00
3124.21,155.00
3125.53,141.00
3126.85,164.00
3128.17,148.00
3129.49,169.00
3130.81,162.00
3132.13,163.00
3133.45,154.00
3134.76,152.00
3136.08,161.00
3137.39,167.00
3138.71,142.00
3140.02,148.00
3141.34,144.00
3142.65,154.00
3143.96,159.00
3145.27,156.00
3146.58,150.00
3147.89,160.00
3149.20,171.00
3150.51,161.00
3151.82,152.00
3153.13,150.00
3154.43,150.00
3155.74,159.00
3157.04,160.00
3158.35,150.00
3159.65,167.00
3160.96,146.00
3162.26,164.00
3163.56,175.00
3164.86,127.00
3166.16,169.00
3167.46,163.00
3168.76,161.00
3170.06,173.00
3171.36,173.00
3172.66,167.00
3173.95,167.00
3175.25,169.00
3176.54,188.00
3177.84,177.00
3179.13,180.00
3180.43,176.00
3181.72,163.00
3183.01,179.00
3184.30,188.00
3185.59,211.00
3186.88,169.00
3188.17,180.00
3189.46,190.00
3190.75,188.00
3192.04,182.00
3193.32,170.00
3194.61,193.00
3195.90,181.00
3197.18,196.00
3198.47,201.00
3199.75,214.00
3201.03,213.00
3202.32,224.00
3203.60,216.00
3204.88,224.00
3206.16,205.00
3207.44,186.00
3208.72,218.00
3210.00,227.00
3211.27,194.00
3212.55,236.00
3213.83,204.00
3215.10,222.00
3216.38,231.00
3217.65,211.00
3218.93,239.00
3220.20,235.00
3221.47,234.00
3222.74,205.00
3224.01,236.00
3225.29,228.00
3226.56,245.00
3227.82,255.00
3229.09,207.00
3230.36,217.00
3231.63,224.00
3232.90,232.00
3234.16,216.00
3235.43,243.00
3236.69,248.00
3237.96,243.00
3239.22,243.00
3240.48,236.00
3241.74,222.00
3243.01,231.00
3244.27,223.00
3245.53,232.00
3246.79,230.00
3248.04,232.00
3249.30,234.00
3250.56,232.00
3251.82,243.00
3253.07,217.00
3254.33,229.00
3255.58,224.00
3256.84,222.00
3258.09,226.00
3259.35,227.00
3260.60,214.00
3261.85,226.00
3263.10,214.00
3264.35,248.00
3265.60,205.00
3266.85,216.00
3268.10,197.00
3269.35,229.00
3270.59,216.00
3271.84,222.00
3273.09,222.00
3274.33,212.00
3275.58,220.00
3276.82,218.00
3278.06,198.00
3279.31,232.00
3280.55,197.00
3281.79,227.00
3283.03,196.00
3284.27,207.00
3285.51,226.00
3286.75,206.00
3287.99,215.00
3289.23,216.00
3290.46,222.00
3291.70,196.00
3292.93,194.00
3294.17,198.00
3295.40,167.00
3296.64,204.00
3297.87,201.00
3299.10,215.00
3300.33,199.00
3301.57,196.00
3302.80,199.00
3304.03,179.00
3305.26,182.00
3306.48,190.00
3307.71,196.00
3308.94,186.00
3310.17,183.00
3311.39,197.00
3312.62,183.00
3313.84,192.00
3315.07,201.00
3316.29,177.00
3317.51,192.00
3318.73,201.00
3319.96,199.00
3321.18,163.00
3322.40,198.00
3323.62,199.00
3324.84,181.00
3326.05,180.00
3327.27,191.00
3328.49,194.00
3329.70,178.00
3330.92,173.00
3332.14,199.00
3333.35,190.00
3334.56,189.00
3335.78,163.00
3336.99,194.00
3338.20,186.00
3339.41,165.00
3340.62,157.00
3341.83,178.00
3343.04,180.00
3344.25,178.00
3345.46,186.00
3346.67,171.00
3347.87,163.00
3349.08,182.00
3350.29,165.00
3351.49,181.00
3352.70,173.00
3353.90,150.00
3355.10,154.00
3356.30,178.00
3357.51,160.00
3358.71,148.00
3359.91,144.00
3361.11,152.00
3362.31,155.00
3363.50,161.00
3364.70,144.00
3365.90,144.00
3367.10,161.00
3368.29,145.00
3369.49,173.00
3370.68,139.00
3371.88,154.00
3373.07,115.00
3374.26,123.00
3375.46,129.00
3376.65,144.00
3377.84,142.00
3379.03,141.00
3380.22,146.00
3381.41,143.00
3382.60,119.00
3383.78,146.00
3384.97,131.00
3386.16,142.00
3387.34,125.00
3388.53,141.00
3389.71,146.00
3390.90,110.00
3392.08,133.00
3393.26,133.00
3394.44,133.00
3395.63,141.00
3396.81,136.00
3397.99,127.00
3399.17,125.00
3400.35,131.00
3401.52,120.00
3402.70,124.00
3403.88,114.00
3405.05,112.00
3406.23,118.00
3407.41,118.00
3408.58,133.00
3409.75,133.00
3410.93,121.00
3412.10,114.00
3413.27,104.00
3414.44,89.00
3415.61,100.00
3416.78,121.00
3417.95,104.00
3419.12,106.00
3420.29,121.00
3421.46,106.00
3422.62,110.00
3423.79,103.00
3424.96,101.00
3426.12,114.00
3427.29,76.00
3428.45,121.00
3429.61,85.00
3430.78,110.00
3431.94,68.00
3433.10,97.00
3434.26,93.00
3435.42,66.00
3436.58,89.00
3437.74,69.00
3438.90,106.00
3440.05,104.00
3441.21,91.00
3442.37,72.00
3443.52,70.00
3444.68,88.00
3445.83,88.00
3446.99,78.00
3448.14,64.00
3449.29,74.00
3450.44,74.00
3451.59,80.00
3452.74,80.00
3453.89,81.00
3455.04,80.00
3456.19,91.00
3457.34,57.00
3458.49,78.00
3459.64,61.00
3460.78,70.00
3461.93,53.00
3463.07,42.00
3464.22,87.00
3465.36,64.00
3466.50,67.00
3467.65,76.00
3468.79,67.00
3469.93,51.00
3471.07,47.00
3472.21,68.00
3473.35,57.00
3474.49,68.00
3475.63,58.00
3476.76,65.00
3477.90,51.00
3479.04,43.00
3480.17,55.00
3481.31,50.00
3482.44,49.00
3483.58,59.00
3484.71,36.00
3485.84,50.00
3486.97,45.00
3488.10,59.00
3489.24,49.00
3490.37,68.00
3491.50,42.00
3492.62,51.00
3493.75,59.00
3494.88,49.00
3496.01,49.00
3497.13,38.00
3498.26,25.00
3499.38,59.00
3500.51,24.00
3501.63,46.00
3502.76,27.00
3503.88,35.00
3505.00,44.00
3506.12,21.00
3507.24,53.00
3508.36,25.00
3509.48,45.00
3510.60,29.00
3511.72,29.00
3512.84,49.00
3513.95,17.00
3515.07,39.00
3516.19,19.00
3517.30,45.00
3518.42,44.00
3519.53,8.00
3520.64,42.00
3521.76,22.00
3522.87,32.00
3523.98,28.00
3525.09,17.00
3526.20,32.00
3527.31,25.00
3528.42,31.00
3529.53,0.00
3530.64,30.00
3531.74,34.00
3532.85,17.00
3533.95,25.00
3535.06,13.00
3536.16,25.00
3537.27,26.00
3538.37,17.00
3539.48,38.00
3540.58,24.00
3541.68,23.00
3542.78,17.00
3543.88,31.00
3544.98,28.00
3546.08,33.00
3547.18,29.00
3548.28,25.00
3549.37,25.00
3550.47,27.00
3551.57,32.00
3552.66,36.00
3553.76,13.00
3554.85,29.00
3555.94,32.00
3557.04,34.00
3558.13,17.00
3559.22,10.00
3560.31,23.00
3561.40,21.00
3562.49,27.00
3563.58,15.00
3564.67,12.00
3565.76,22.00
3566.85,33.00
3567.93,24.00
3569.02,8.00
3570.11,12.00
3571.19,12.00
3572.27,4.00
3573.36,48.00
3574.44,7.00
3575.52,21.00
3576.61,0.00
3577.69,19.00
3578.77,13.00
3579.85,-8.00
3580.93,36.00
3582.01,-8.00
3583.09,25.00
3584.16,5.00
3585.24,6.00
3586.32,17.00
3587.39,0.00
3588.47,19.00
3589.54,0.00
3590.62,0.00
3591.69,12.00
3592.76,23.00
3593.83,17.00
3594.91,7.00
3595.98,17.00
3597.05,11.00
3598.12,2.00
3599.19,23.00
3600.26,4.00
3601.32,17.00
3602.39,6.00
3603.46,8.00
3604.52,9.00
3605.59,7.00
3606.65,8.00
3607.72,-9.00
3608.78,11.00
3609.84,12.00
3610.91,15.00
3611.97,0.00
3613.03,-16.00
3614.09,29.00
3615.15,8.00
3616.21,5.00
3617.27,0.00
3618.33,4.00
3619.39,23.00
3620.44,2.00
3621.50,19.00
3622.55,0.00
3623.61,6.00
3624.66,25.00
3625.72,-7.00
3626.77,10.00
3627.82,16.00
3628.88,17.00
3629.93,-4.00
3630.98,27.00
3632.03,29.00
3633.08,-9.00
3634.13,4.00
3635.18,-2.00
3636.22,0.00
3637.27,15.00
3638.32,6.00
3639.36,13.00
3640.41,-8.00
3641.45,0.00
3642.50,0.00
3643.54,0.00
3644.59,7.00
3645.63,-2.00
3646.67,8.00
3647.71,18.00
3648.75,-4.00
3649.79,-10.00
3650.83,-10.00
3651.87,21.00
3652.91,-15.00
3653.95,4.00
3654.98,0.00
3656.02,0.00
3657.06,-3.00
