ENLIGHTEN Version,1.6.8
Measurement ID,20190528-082252-426415-WP-00391
Serial Number,WP-00391
Label,Glucose 100g per L
Integration Time,2000
Timestamp,2019-05-28 08:22:52.426415
Note,
Temperature,-99
CCD C0,789.0726928710938
CCD C1,0.16069164872169495
CCD C2,5.064120159659069e-06
CCD C3,-4.444800083547307e-09
CCD Offset,0
CCD Gain,1.9
Laser Wavelength,785.0
Laser Enable,False
Laser Power,100.0
Laser Temperature,-99
Pixel Count,2048

Wavenumber,Processed
65.75,414.00
68.33,386.00
70.91,435.00
73.49,437.00
76.07,442.00
78.64,454.00
81.22,439.00
83.79,520.00
86.37,478.00
88.94,522.00
91.51,558.00
94.09,595.00
96.66,657.00
99.23,623.00
101.79,719.00
104.36,702.00
106.93,774.00
109.50,820.00
112.06,850.00
114.63,927.00
117.19,1007.00
119.75,1152.00
122.31,1148.00
124.87,1276.00
127.43,1316.00
129.99,1448.00
132.55,1568.00
135.11,1640.00
137.66,1784.00
140.22,1887.00
142.78,2005.00
145.33,2181.00
147.88,2225.00
150.43,2352.00
152.98,2508.00
155.53,2646.00
158.08,2876.00
160.63,3002.00
163.18,3176.00
165.73,3328.00
168.27,3536.00
170.82,3630.00
173.36,3831.00
175.90,3943.00
178.45,4055.00
180.99,4286.00
183.53,4347.00
186.07,4465.00
188.61,4619.00
191.14,4676.00
193.68,4824.00
196.22,4841.00
198.75,5088.00
201.29,5063.00
203.82,5127.00
206.35,5211.00
208.88,5228.00
211.41,5259.00
213.94,5251.00
216.47,5304.00
219.00,5272.00
221.53,5191.00
224.05,5156.00
226.58,5088.00
229.10,5120.00
231.63,5054.00
234.15,5004.00
236.67,4915.00
239.19,4826.00
241.71,4733.00
244.23,4658.00
246.75,4677.00
249.27,4575.00
251.78,4531.00
254.30,4507.00
256.81,4397.00
259.33,4364.00
261.84,4254.00
264.35,4186.00
266.86,4175.00
269.38,4068.00
271.88,3979.00
274.39,3985.00
276.90,3939.00
279.41,3831.00
281.91,3844.00
284.42,3778.00
286.92,3710.00
289.43,3637.00
291.93,3598.00
294.43,3569.00
296.93,3506.00
299.43,3482.00
301.93,3430.00
304.43,3417.00
306.92,3353.00
309.42,3345.00
311.91,3291.00
314.41,3381.00
316.90,3252.00
319.39,3301.00
321.89,3300.00
324.38,3373.00
326.87,3256.00
329.36,3326.00
331.84,3355.00
334.33,3355.00
336.82,3368.00
339.30,3388.00
341.79,3398.00
344.27,3419.00
346.75,3500.00
349.24,3516.00
351.72,3504.00
354.20,3512.00
356.68,3461.00
359.16,3450.00
361.63,3437.00
364.11,3309.00
366.59,3343.00
369.06,3285.00
371.53,3362.00
374.01,3351.00
376.48,3301.00
378.95,3410.00
381.42,3421.00
383.89,3495.00
386.36,3552.00
388.83,3572.00
391.29,3637.00
393.76,3782.00
396.23,3941.00
398.69,4103.00
401.15,4167.00
403.62,4372.00
406.08,4370.00
408.54,4298.00
411.00,4389.00
413.46,4570.00
415.91,4714.00
418.37,4946.00
420.83,5031.00
423.28,5067.00
425.74,4951.00
428.19,4750.00
430.64,4606.00
433.10,4472.00
435.55,4423.00
438.00,4471.00
440.45,4487.00
442.90,4638.00
445.34,4610.00
447.79,4647.00
450.24,4573.00
452.68,4325.00
455.12,4327.00
457.57,4096.00
460.01,3979.00
462.45,3865.00
464.89,3707.00
467.33,3533.00
469.77,3400.00
472.21,3446.00
474.64,3410.00
477.08,3438.00
479.52,3413.00
481.95,3450.00
484.38,3588.00
486.82,3656.00
489.25,3924.00
491.68,4000.00
494.11,4124.00
496.54,4218.00
498.96,4201.00
501.39,4249.00
503.82,4232.00
506.24,4305.00
508.67,4431.00
511.09,4521.00
513.52,4771.00
515.94,4896.00
518.36,4991.00
520.78,4810.00
523.20,4628.00
525.62,4304.00
528.03,3973.00
530.45,3863.00
532.87,3810.00
535.28,3759.00
537.69,3776.00
540.11,3695.00
542.52,3727.00
544.93,3555.00
547.34,3470.00
549.75,3273.00
552.16,3286.00
554.57,3263.00
556.98,3187.00
559.38,3193.00
561.79,3224.00
564.19,3199.00
566.59,3108.00
569.00,3138.00
571.40,3019.00
573.80,2905.00
576.20,2895.00
578.60,2836.00
581.00,2815.00
583.39,2802.00
585.79,2881.00
588.19,2823.00
590.58,2762.00
592.98,2708.00
595.37,2643.00
597.76,2561.00
600.15,2581.00
602.54,2453.00
604.93,2439.00
607.32,2350.00
609.71,2316.00
612.09,2344.00
614.48,2316.00
616.87,2272.00
619.25,2252.00
621.63,2263.00
624.02,2244.00
626.40,2208.00
628.78,2248.00
631.16,2252.00
633.54,2234.00
635.91,2246.00
638.29,2257.00
640.67,2244.00
643.04,2263.00
645.42,2255.00
647.79,2221.00
650.16,2174.00
652.54,2170.00
654.91,2130.00
657.28,2080.00
659.65,2068.00
662.02,2133.00
664.38,2092.00
666.75,2029.00
669.12,1997.00
671.48,2020.00
673.84,1973.00
676.21,1986.00
678.57,1989.00
680.93,1976.00
683.29,1912.00
685.65,1963.00
688.01,1933.00
690.37,1928.00
692.73,1955.00
695.08,1898.00
697.44,1925.00
699.79,1916.00
702.14,1891.00
704.50,1912.00
706.85,1912.00
709.20,1963.00
711.55,1900.00
713.90,1902.00
716.25,1868.00
718.60,1807.00
720.94,1826.00
723.29,1879.00
725.63,1794.00
727.98,1850.00
730.32,1838.00
732.66,1785.00
735.00,1827.00
737.34,1775.00
739.68,1764.00
742.02,1703.00
744.36,1788.00
746.70,1738.00
749.03,1725.00
751.37,1718.00
753.70,1749.00
756.04,1701.00
758.37,1712.00
760.70,1751.00
763.03,1714.00
765.36,1681.00
767.69,1742.00
770.02,1745.00
772.35,1774.00
774.67,1775.00
777.00,1790.00
779.32,1741.00
781.65,1631.00
783.97,1666.00
786.29,1617.00
788.61,1649.00
790.93,1575.00
793.25,1588.00
795.57,1551.00
797.89,1605.00
800.21,1530.00
802.52,1549.00
804.84,1544.00
807.15,1570.00
809.47,1538.00
811.78,1473.00
814.09,1502.00
816.40,1529.00
818.71,1498.00
821.02,1584.00
823.33,1495.00
825.64,1460.00
827.94,1513.00
830.25,1517.00
832.55,1521.00
834.86,1589.00
837.16,1616.00
839.46,1746.00
841.77,1798.00
844.07,1889.00
846.37,1895.00
848.66,1891.00
850.96,1876.00
853.26,1866.00
855.56,1817.00
857.85,1790.00
860.15,1791.00
862.44,1764.00
864.73,1695.00
867.02,1674.00
869.31,1625.00
871.60,1553.00
873.89,1536.00
876.18,1420.00
878.47,1416.00
880.76,1356.00
883.04,1346.00
885.33,1429.00
887.61,1539.00
889.89,1570.00
892.18,1695.00
894.46,1903.00
896.74,1925.00
899.02,2092.00
901.30,1906.00
903.58,1944.00
905.85,1849.00
908.13,1856.00
910.40,1978.00
912.68,1980.00
914.95,1992.00
917.23,2001.00
919.50,1961.00
921.77,1924.00
924.04,1735.00
926.31,1621.00
928.58,1479.00
930.84,1388.00
933.11,1342.00
935.38,1179.00
937.64,1150.00
939.91,1042.00
942.17,1098.00
944.43,1001.00
946.69,1038.00
948.95,1074.00
951.21,985.00
953.47,1021.00
955.73,959.00
957.99,968.00
960.25,955.00
962.50,1018.00
964.76,940.00
967.01,1001.00
969.26,980.00
971.51,1006.00
973.77,954.00
976.02,995.00
978.27,966.00
980.51,1015.00
982.76,1064.00
985.01,962.00
987.26,1033.00
989.50,1103.00
991.75,1089.00
993.99,1211.00
996.23,1129.00
998.47,1198.00
1000.71,1194.00
1002.95,1285.00
1005.19,1374.00
1007.43,1464.00
1009.67,1514.00
1011.91,1648.00
1014.14,1726.00
1016.38,1872.00
1018.61,1914.00
1020.84,1965.00
1023.08,1876.00
1025.31,1841.00
1027.54,1884.00
1029.77,1893.00
1032.00,2026.00
1034.23,2008.00
1036.45,2016.00
1038.68,2126.00
1040.91,2077.00
1043.13,2114.00
1045.35,2242.00
1047.58,2166.00
1049.80,2236.00
1052.02,2244.00
1054.24,2383.00
1056.46,2529.00
1058.68,2644.00
1060.90,2794.00
1063.11,2815.00
1065.33,2876.00
1067.55,2823.00
1069.76,2740.00
1071.97,2638.00
1074.19,2555.00
1076.40,2452.00
1078.61,2360.00
1080.82,2278.00
1083.03,2136.00
1085.24,2025.00
1087.44,1880.00
1089.65,1760.00
1091.86,1768.00
1094.06,1809.00
1096.27,1824.00
1098.47,1925.00
1100.67,2090.00
1102.87,2204.00
1105.07,2206.00
1107.27,2483.00
1109.47,2568.00
1111.67,2768.00
1113.87,2870.00
1116.07,3100.00
1118.26,3298.00
1120.46,3385.00
1122.65,3593.00
1124.84,3670.00
1127.04,3698.00
1129.23,3624.00
1131.42,3461.00
1133.61,3343.00
1135.80,3017.00
1137.98,2798.00
1140.17,2491.00
1142.36,2263.00
1144.54,1994.00
1146.73,1913.00
1148.91,1842.00
1151.09,1756.00
1153.28,1816.00
1155.46,1741.00
1157.64,1725.00
1159.82,1564.00
1162.00,1608.00
1164.17,1478.00
1166.35,1365.00
1168.53,1214.00
1170.70,1227.00
1172.88,1160.00
1175.05,1103.00
1177.22,1023.00
1179.40,1027.00
1181.57,1020.00
1183.74,982.00
1185.91,911.00
1188.07,968.00
1190.24,1027.00
1192.41,929.00
1194.57,1029.00
1196.74,982.00
1198.90,1046.00
1201.07,1109.00
1203.23,1170.00
1205.39,1124.00
1207.55,1097.00
1209.71,1046.00
1211.87,1065.00
1214.03,1046.00
1216.19,1050.00
1218.34,1090.00
1220.50,993.00
1222.66,1067.00
1224.81,1082.00
1226.96,1067.00
1229.11,1130.00
1231.27,1128.00
1233.42,1154.00
1235.57,1129.00
1237.72,1162.00
1239.86,1171.00
1242.01,1132.00
1244.16,1205.00
1246.30,1226.00
1248.45,1238.00
1250.59,1241.00
1252.74,1200.00
1254.88,1291.00
1257.02,1342.00
1259.16,1357.00
1261.30,1328.00
1263.44,1525.00
1265.58,1434.00
1267.71,1397.00
1269.85,1406.00
1271.99,1418.00
1274.12,1305.00
1276.25,1270.00
1278.39,1249.00
1280.52,1149.00
1282.65,1189.00
1284.78,1191.00
1286.91,1105.00
1289.04,1141.00
1291.17,1138.00
1293.30,1054.00
1295.42,1023.00
1297.55,1063.00
1299.67,1107.00
1301.80,1097.00
1303.92,1177.00
1306.04,1122.00
1308.16,1156.00
1310.28,1300.00
1312.40,1250.00
1314.52,1310.00
1316.64,1338.00
1318.76,1325.00
1320.87,1447.00
1322.99,1472.00
1325.10,1496.00
1327.22,1553.00
1329.33,1620.00
1331.44,1545.00
1333.55,1565.00
1335.66,1617.00
1337.77,1577.00
1339.88,1617.00
1341.99,1560.00
1344.10,1623.00
1346.20,1581.00
1348.31,1654.00
1350.41,1676.00
1352.52,1696.00
1354.62,1775.00
1356.72,1730.00
1358.82,1803.00
1360.92,1917.00
1363.02,1965.00
1365.12,2056.00
1367.22,1986.00
1369.31,1982.00
1371.41,1921.00
1373.51,2054.00
1375.60,1862.00
1377.69,1822.00
1379.79,1805.00
1381.88,1695.00
1383.97,1689.00
1386.06,1641.00
1388.15,1540.00
1390.24,1460.00
1392.33,1393.00
1394.41,1325.00
1396.50,1295.00
1398.59,1227.00
1400.67,1168.00
1402.75,1180.00
1404.84,1103.00
1406.92,1037.00
1409.00,1196.00
1411.08,1067.00
1413.16,1122.00
1415.24,1141.00
1417.32,1015.00
1419.39,968.00
1421.47,1036.00
1423.54,993.00
1425.62,928.00
1427.69,1008.00
1429.77,898.00
1431.84,931.00
1433.91,968.00
1435.98,919.00
1438.05,993.00
1440.12,985.00
1442.19,948.00
1444.25,984.00
1446.32,989.00
1448.38,1025.00
1450.45,999.00
1452.51,1164.00
1454.58,1241.00
1456.64,1409.00
1458.70,1485.00
1460.76,1451.00
1462.82,1467.00
1464.88,1416.00
1466.94,1348.00
1468.99,1327.00
1471.05,1208.00
1473.10,1069.00
1475.16,887.00
1477.21,879.00
1479.27,816.00
1481.32,762.00
1483.37,682.00
1485.42,723.00
1487.47,653.00
1489.52,695.00
1491.57,611.00
1493.61,564.00
1495.66,523.00
1497.71,623.00
1499.75,659.00
1501.79,559.00
1503.84,447.00
1505.88,514.00
1507.92,544.00
1509.96,595.00
1512.00,516.00
1514.04,462.00
1516.08,564.00
1518.12,446.00
1520.15,496.00
1522.19,548.00
1524.22,577.00
1526.26,541.00
1528.29,510.00
1530.32,592.00
1532.35,575.00
1534.38,459.00
1536.41,582.00
1538.44,585.00
1540.47,645.00
1542.50,612.00
1544.53,674.00
1546.55,582.00
1548.58,572.00
1550.60,611.00
1552.62,485.00
1554.65,633.00
1556.67,623.00
1558.69,611.00
1560.71,624.00
1562.73,685.00
1564.75,773.00
1566.76,724.00
1568.78,680.00
1570.80,719.00
1572.81,850.00
1574.83,739.00
1576.84,852.00
1578.85,799.00
1580.86,752.00
1582.88,759.00
1584.89,852.00
1586.89,848.00
1588.90,852.00
1590.91,850.00
1592.92,944.00
1594.92,949.00
1596.93,908.00
1598.93,918.00
1600.94,1002.00
1602.94,989.00
1604.94,1063.00
1606.94,1082.00
1608.94,1065.00
1610.94,1072.00
1612.94,1091.00
1614.94,1090.00
1616.94,1227.00
1618.93,1245.00
1620.93,1232.00
1622.92,1217.00
1624.92,1299.00
1626.91,1310.00
1628.90,1302.00
1630.89,1295.00
1632.89,1329.00
1634.88,1296.00
1636.86,1388.00
1638.85,1434.00
1640.84,1353.00
1642.83,1344.00
1644.81,1482.00
1646.80,1277.00
1648.78,1361.00
1650.76,1322.00
1652.75,1265.00
1654.73,1317.00
1656.71,1325.00
1658.69,1265.00
1660.67,1253.00
1662.65,1204.00
1664.62,1184.00
1666.60,1173.00
1668.58,1071.00
1670.55,1103.00
1672.53,1006.00
1674.50,1010.00
1676.47,955.00
1678.45,961.00
1680.42,1010.00
1682.39,926.00
1684.36,953.00
1686.32,884.00
1688.29,814.00
1690.26,780.00
1692.23,848.00
1694.19,784.00
1696.16,731.00
1698.12,695.00
1700.08,657.00
1702.05,655.00
1704.01,551.00
1705.97,501.00
1707.93,518.00
1709.89,537.00
1711.84,533.00
1713.80,448.00
1715.76,520.00
1717.71,463.00
1719.67,448.00
1721.62,457.00
1723.58,406.00
1725.53,526.00
1727.48,374.00
1729.43,369.00
1731.38,382.00
1733.33,378.00
1735.28,277.00
1737.23,315.00
1739.17,332.00
1741.12,389.00
1743.06,277.00
1745.01,386.00
1746.95,244.00
1748.90,232.00
1750.84,258.00
1752.78,192.00
1754.72,287.00
1756.66,315.00
1758.60,228.00
1760.54,271.00
1762.47,230.00
1764.41,154.00
1766.35,182.00
1768.28,178.00
1770.21,167.00
1772.15,251.00
1774.08,192.00
1776.01,202.00
1777.94,228.00
1779.87,163.00
1781.80,220.00
1783.73,192.00
1785.66,124.00
1787.58,167.00
1789.51,79.00
1791.44,108.00
1793.36,158.00
1795.28,216.00
1797.21,122.00
1799.13,204.00
1801.05,180.00
1802.97,80.00
1804.89,159.00
1806.81,158.00
1808.73,173.00
1810.64,146.00
1812.56,156.00
1814.48,126.00
1816.39,59.00
1818.30,103.00
1820.22,100.00
1822.13,144.00
1824.04,127.00
1825.95,107.00
1827.86,50.00
1829.77,110.00
1831.68,118.00
1833.59,89.00
1835.49,74.00
1837.40,48.00
1839.31,93.00
1841.21,131.00
1843.11,49.00
1845.02,120.00
1846.92,136.00
1848.82,127.00
1850.72,93.00
1852.62,121.00
1854.52,78.00
1856.42,85.00
1858.31,40.00
1860.21,133.00
1862.11,44.00
1864.00,84.00
1865.89,122.00
1867.79,118.00
1869.68,46.00
1871.57,131.00
1873.46,72.00
1875.35,124.00
1877.24,76.00
1879.13,76.00
1881.02,148.00
1882.91,63.00
1884.79,89.00
1886.68,122.00
1888.56,91.00
1890.45,97.00
1892.33,66.00
1894.21,171.00
1896.09,121.00
1897.97,17.00
1899.85,129.00
1901.73,141.00
1903.61,112.00
1905.49,89.00
1907.36,103.00
1909.24,57.00
1911.11,104.00
1912.99,104.00
1914.86,92.00
1916.74,79.00
1918.61,53.00
1920.48,59.00
1922.35,90.00
1924.22,108.00
1926.09,100.00
1927.95,63.00
1929.82,124.00
1931.69,160.00
1933.55,99.00
1935.42,152.00
1937.28,133.00
1939.15,57.00
1941.01,140.00
1942.87,102.00
1944.73,133.00
1946.59,102.00
1948.45,156.00
1950.31,110.00
1952.17,147.00
1954.02,112.00
1955.88,154.00
1957.73,157.00
1959.59,95.00
1961.44,136.00
1963.30,130.00
1965.15,156.00
1967.00,177.00
1968.85,154.00
1970.70,202.00
1972.55,114.00
1974.40,155.00
1976.25,228.00
1978.09,165.00
1979.94,176.00
1981.78,184.00
1983.63,181.00
1985.47,191.00
1987.31,157.00
1989.16,193.00
1991.00,196.00
1992.84,206.00
1994.68,184.00
1996.52,207.00
1998.35,176.00
2000.19,236.00
2002.03,182.00
2003.86,186.00
2005.70,226.00
2007.53,179.00
2009.37,252.00
2011.20,224.00
2013.03,217.00
2014.86,193.00
2016.69,225.00
2018.52,267.00
2020.35,224.00
2022.18,192.00
2024.01,238.00
2025.83,207.00
2027.66,247.00
2029.48,211.00
2031.31,243.00
2033.13,270.00
2034.95,300.00
2036.77,270.00
2038.59,239.00
2040.42,213.00
2042.23,253.00
2044.05,276.00
2045.87,251.00
2047.69,262.00
2049.50,299.00
2051.32,240.00
2053.13,243.00
2054.95,289.00
2056.76,253.00
2058.57,266.00
2060.39,262.00
2062.20,264.00
2064.01,260.00
2065.82,286.00
2067.62,285.00
2069.43,302.00
2071.24,326.00
2073.05,266.00
2074.85,267.00
2076.66,330.00
2078.46,283.00
2080.26,285.00
2082.06,311.00
2083.87,311.00
2085.67,317.00
2087.47,323.00
2089.27,315.00
2091.06,275.00
2092.86,264.00
2094.66,283.00
2096.45,309.00
2098.25,294.00
2100.04,268.00
2101.84,332.00
2103.63,241.00
2105.42,301.00
2107.22,319.00
2109.01,262.00
2110.80,317.00
2112.59,289.00
2114.37,319.00
2116.16,305.00
2117.95,292.00
2119.73,254.00
2121.52,315.00
2123.30,331.00
2125.09,288.00
2126.87,298.00
2128.65,287.00
2130.43,285.00
2132.22,334.00
2134.00,252.00
2135.77,355.00
2137.55,294.00
2139.33,340.00
2141.11,294.00
2142.88,277.00
2144.66,316.00
2146.43,281.00
2148.21,258.00
2149.98,300.00
2151.75,311.00
2153.52,262.00
2155.29,243.00
2157.06,272.00
2158.83,249.00
2160.60,285.00
2162.37,260.00
2164.14,259.00
2165.90,273.00
2167.67,281.00
2169.43,237.00
2171.20,267.00
2172.96,228.00
2174.72,239.00
2176.48,230.00
2178.24,239.00
2180.00,236.00
2181.76,250.00
2183.52,258.00
2185.28,222.00
2187.04,228.00
2188.79,219.00
2190.55,253.00
2192.30,228.00
2194.06,211.00
2195.81,269.00
2197.56,261.00
2199.31,232.00
2201.06,231.00
2202.81,244.00
2204.56,209.00
2206.31,222.00
2208.06,228.00
2209.81,212.00
2211.55,271.00
2213.30,197.00
2215.04,241.00
2216.79,182.00
2218.53,182.00
2220.27,192.00
2222.01,167.00
2223.76,211.00
2225.50,209.00
2227.23,195.00
2228.97,177.00
2230.71,182.00
2232.45,207.00
2234.18,148.00
2235.92,209.00
2237.66,186.00
2239.39,178.00
2241.12,156.00
2242.86,140.00
2244.59,182.00
2246.32,154.00
2248.05,163.00
2249.78,127.00
2251.51,207.00
2253.23,203.00
2254.96,161.00
2256.69,180.00
2258.41,107.00
2260.14,160.00
2261.86,167.00
2263.59,108.00
2265.31,146.00
2267.03,118.00
2268.75,117.00
2270.47,112.00
2272.19,134.00
2273.91,135.00
2275.63,156.00
2277.35,117.00
2279.06,127.00
2280.78,170.00
2282.50,100.00
2284.21,146.00
2285.92,147.00
2287.64,125.00
2289.35,120.00
2291.06,131.00
2292.77,99.00
2294.48,131.00
2296.19,115.00
2297.90,106.00
2299.61,95.00
2301.31,121.00
2303.02,93.00
2304.72,117.00
2306.43,98.00
2308.13,98.00
2309.84,45.00
2311.54,99.00
2313.24,86.00
2314.94,72.00
2316.64,49.00
2318.34,46.00
2320.04,74.00
2321.74,87.00
2323.43,65.00
2325.13,30.00
2326.83,-6.00
2328.52,-8.00
2330.21,25.00
2331.91,10.00
2333.60,61.00
2335.29,63.00
2336.98,77.00
2338.67,68.00
2340.36,91.00
2342.05,95.00
2343.74,80.00
2345.43,55.00
2347.11,112.00
2348.80,72.00
2350.49,72.00
2352.17,72.00
2353.85,81.00
2355.54,91.00
2357.22,70.00
2358.90,66.00
2360.58,74.00
2362.26,34.00
2363.94,103.00
2365.62,80.00
2367.30,83.00
2368.97,117.00
2370.65,120.00
2372.32,74.00
2374.00,85.00
2375.67,42.00
2377.35,114.00
2379.02,74.00
2380.69,63.00
2382.36,60.00
2384.03,40.00
2385.70,47.00
2387.37,40.00
2389.04,46.00
2390.70,59.00
2392.37,40.00
2394.04,66.00
2395.70,23.00
2397.37,59.00
2399.03,38.00
2400.69,25.00
2402.35,49.00
2404.02,89.00
2405.68,55.00
2407.34,50.00
2409.00,72.00
2410.65,40.00
2412.31,133.00
2413.97,61.00
2415.62,110.00
2417.28,89.00
2418.93,21.00
2420.59,55.00
2422.24,55.00
2423.89,49.00
2425.55,57.00
2427.20,89.00
2428.85,62.00
2430.50,93.00
2432.14,59.00
2433.79,94.00
2435.44,34.00
2437.09,69.00
2438.73,58.00
2440.38,27.00
2442.02,82.00
2443.66,47.00
2445.31,44.00
2446.95,34.00
2448.59,70.00
2450.23,95.00
2451.87,48.00
2453.51,76.00
2455.15,55.00
2456.79,72.00
2458.42,32.00
2460.06,59.00
2461.70,72.00
2463.33,25.00
2464.96,44.00
2466.60,53.00
2468.23,36.00
2469.86,85.00
2471.49,55.00
2473.12,54.00
2474.75,53.00
2476.38,72.00
2478.01,42.00
2479.64,47.00
2481.26,53.00
2482.89,51.00
2484.51,69.00
2486.14,47.00
2487.76,48.00
2489.39,71.00
2491.01,83.00
2492.63,71.00
2494.25,32.00
2495.87,84.00
2497.49,101.00
2499.11,146.00
2500.73,91.00
2502.34,57.00
2503.96,66.00
2505.57,61.00
2507.19,61.00
2508.80,53.00
2510.42,36.00
2512.03,65.00
2513.64,2.00
2515.25,43.00
2516.86,80.00
2518.47,54.00
2520.08,51.00
2521.69,74.00
2523.30,53.00
2524.91,53.00
2526.51,47.00
2528.12,42.00
2529.72,76.00
2531.33,60.00
2532.93,69.00
2534.53,91.00
2536.13,103.00
2537.73,72.00
2539.33,108.00
2540.93,59.00
2542.53,40.00
2544.13,78.00
2545.73,60.00
2547.32,80.00
2548.92,86.00
2550.52,72.00
2552.11,68.00
2553.70,82.00
2555.30,70.00
2556.89,93.00
2558.48,42.00
2560.07,69.00
2561.66,84.00
2563.25,88.00
2564.84,94.00
2566.43,106.00
2568.02,97.00
2569.60,60.00
2571.19,27.00
2572.77,61.00
2574.36,46.00
2575.94,70.00
2577.52,59.00
2579.11,85.00
2580.69,70.00
2582.27,95.00
2583.85,78.00
2585.43,63.00
2587.01,87.00
2588.58,57.00
2590.16,73.00
2591.74,70.00
2593.31,74.00
2594.89,88.00
2596.46,60.00
2598.04,57.00
2599.61,103.00
2601.18,80.00
2602.75,115.00
2604.32,57.00
2605.89,91.00
2607.46,99.00
2609.03,95.00
2610.60,120.00
2612.16,97.00
2613.73,107.00
2615.30,101.00
2616.86,128.00
2618.43,95.00
2619.99,108.00
2621.55,150.00
2623.11,108.00
2624.67,97.00
2626.24,80.00
2627.80,93.00
2629.35,82.00
2630.91,115.00
2632.47,125.00
2634.03,84.00
2635.58,117.00
2637.14,114.00
2638.69,107.00
2640.25,144.00
2641.80,114.00
2643.35,109.00
2644.91,91.00
2646.46,117.00
2648.01,99.00
2649.56,129.00
2651.11,148.00
2652.66,123.00
2654.20,128.00
2655.75,135.00
2657.30,144.00
2658.84,110.00
2660.39,137.00
2661.93,106.00
2663.47,128.00
2665.02,131.00
2666.56,141.00
2668.10,118.00
2669.64,162.00
2671.18,157.00
2672.72,163.00
2674.26,135.00
2675.79,148.00
2677.33,143.00
2678.87,165.00
2680.40,171.00
2681.94,177.00
2683.47,152.00
2685.01,207.00
2686.54,153.00
2688.07,217.00
2689.60,196.00
2691.13,190.00
2692.66,184.00
2694.19,192.00
2695.72,174.00
2697.25,196.00
2698.77,264.00
2700.30,224.00
2701.83,248.00
2703.35,216.00
2704.87,233.00
2706.40,241.00
2707.92,203.00
2709.44,236.00
2710.96,228.00
2712.48,262.00
2714.00,232.00
2715.52,231.00
2717.04,281.00
2718.56,275.00
2720.08,257.00
2721.59,300.00
2723.11,256.00
2724.62,294.00
2726.14,277.00
2727.65,250.00
2729.16,272.00
2730.68,275.00
2732.19,273.00
2733.70,279.00
2735.21,257.00
2736.72,281.00
2738.23,296.00
2739.73,260.00
2741.24,260.00
2742.75,300.00
2744.25,288.00
2745.76,281.00
2747.26,271.00
2748.77,245.00
2750.27,298.00
2751.77,260.00
2753.27,279.00
2754.77,262.00
2756.27,273.00
2757.77,245.00
2759.27,289.00
2760.77,283.00
2762.27,296.00
2763.76,260.00
2765.26,271.00
2766.76,313.00
2768.25,268.00
2769.74,302.00
2771.24,294.00
2772.73,283.00
2774.22,304.00
2775.71,285.00
2777.20,308.00
2778.69,291.00
2780.18,279.00
2781.67,280.00
2783.16,313.00
2784.64,285.00
2786.13,308.00
2787.61,307.00
2789.10,283.00
2790.58,315.00
2792.07,305.00
2793.55,287.00
2795.03,314.00
2796.51,319.00
2797.99,279.00
2799.47,351.00
2800.95,323.00
2802.43,353.00
2803.91,348.00
2805.38,378.00
2806.86,353.00
2808.34,340.00
2809.81,361.00
2811.28,384.00
2812.76,384.00
2814.23,403.00
2815.70,419.00
2817.17,418.00
2818.64,402.00
2820.11,448.00
2821.58,433.00
2823.05,444.00
2824.52,471.00
2825.99,505.00
2827.45,486.00
2828.92,511.00
2830.39,509.00
2831.85,556.00
2833.31,564.00
2834.78,568.00
2836.24,553.00
2837.70,585.00
2839.16,616.00
2840.62,677.00
2842.08,666.00
2843.54,704.00
2845.00,710.00
2846.46,755.00
2847.91,748.00
2849.37,803.00
2850.82,834.00
2852.28,848.00
2853.73,885.00
2855.19,944.00
2856.64,968.00
2858.09,983.00
2859.54,1006.00
2860.99,1050.00
2862.44,1114.00
2863.89,1139.00
2865.34,1169.00
2866.79,1207.00
2868.23,1240.00
2869.68,1287.00
2871.13,1352.00
2872.57,1419.00
2874.02,1489.00
2875.46,1490.00
2876.90,1512.00
2878.34,1558.00
2879.79,1631.00
2881.23,1651.00
2882.67,1673.00
2884.11,1758.00
2885.55,1805.00
2886.98,1775.00
2888.42,1855.00
2889.86,1848.00
2891.29,1919.00
2892.73,1914.00
2894.16,1933.00
2895.60,1948.00
2897.03,1951.00
2898.46,1944.00
2899.90,1921.00
2901.33,1887.00
2902.76,1910.00
2904.19,1884.00
2905.62,1821.00
2907.04,1779.00
2908.47,1786.00
2909.90,1773.00
2911.33,1731.00
2912.75,1670.00
2914.18,1674.00
2915.60,1641.00
2917.02,1619.00
2918.45,1556.00
2919.87,1492.00
2921.29,1485.00
2922.71,1486.00
2924.13,1473.00
2925.55,1464.00
2926.97,1462.00
2928.39,1460.00
2929.81,1452.00
2931.22,1447.00
2932.64,1449.00
2934.05,1456.00
2935.47,1435.00
2936.88,1451.00
2938.30,1444.00
2939.71,1454.00
2941.12,1477.00
2942.53,1490.00
2943.94,1501.00
2945.35,1497.00
2946.76,1510.00
2948.17,1490.00
2949.58,1488.00
2950.99,1479.00
2952.39,1463.00
2953.80,1413.00
2955.20,1403.00
2956.61,1369.00
2958.01,1378.00
2959.42,1316.00
2960.82,1304.00
2962.22,1312.00
2963.62,1282.00
2965.02,1249.00
2966.42,1223.00
2967.82,1212.00
2969.22,1220.00
2970.62,1149.00
2972.01,1133.00
2973.41,1139.00
2974.80,1127.00
2976.20,1117.00
2977.59,1071.00
2978.99,1122.00
2980.38,1077.00
2981.77,1069.00
2983.16,1033.00
2984.56,1070.00
2985.95,1024.00
2987.34,1001.00
2988.72,995.00
2990.11,1006.00
2991.50,982.00
2992.89,1003.00
2994.27,995.00
2995.66,926.00
2997.04,934.00
2998.43,967.00
2999.81,962.00
3001.19,906.00
3002.58,957.00
3003.96,988.00
3005.34,938.00
3006.72,913.00
3008.10,953.00
3009.48,919.00
3010.85,936.00
3012.23,981.00
3013.61,951.00
3014.98,979.00
3016.36,964.00
3017.73,1002.00
3019.11,997.00
3020.48,1008.00
3021.85,1058.00
3023.23,1031.00
3024.60,1058.00
3025.97,1036.00
3027.34,1050.00
3028.71,1056.00
3030.08,1103.00
3031.44,1084.00
3032.81,1059.00
3034.18,1097.00
3035.54,1104.00
3036.91,1139.00
3038.27,1150.00
3039.64,1144.00
3041.00,1179.00
3042.36,1179.00
3043.72,1167.00
3045.09,1202.00
3046.45,1217.00
3047.81,1230.00
3049.17,1247.00
3050.52,1265.00
3051.88,1293.00
3053.24,1266.00
3054.60,1312.00
3055.95,1310.00
3057.31,1320.00
3058.66,1346.00
3060.01,1369.00
3061.37,1400.00
3062.72,1377.00
3064.07,1456.00
3065.42,1437.00
3066.77,1443.00
3068.12,1464.00
3069.47,1465.00
3070.82,1504.00
3072.17,1536.00
3073.52,1536.00
3074.86,1546.00
3076.21,1583.00
3077.55,1570.00
3078.90,1606.00
3080.24,1644.00
3081.58,1682.00
3082.93,1652.00
3084.27,1686.00
3085.61,1678.00
3086.95,1740.00
3088.29,1716.00
3089.63,1799.00
3090.97,1798.00
3092.31,1809.00
3093.64,1798.00
3094.98,1836.00
3096.31,1863.00
3097.65,1876.00
3098.98,1924.00
3100.32,1904.00
3101.65,1933.00
3102.98,2003.00
3104.32,1972.00
3105.65,2005.00
3106.98,2008.00
3108.31,2054.00
3109.64,2081.00
3110.96,2080.00
3112.29,2160.00
3113.62,2158.00
3114.95,2142.00
3116.27,2161.00
3117.60,2185.00
3118.92,2175.00
3120.24,2248.00
3121.57,2265.00
3122.89,2237.00
3124.21,2288.00
3125.53,2289.00
3126.85,2284.00
3128.17,2326.00
3129.49,2371.00
3130.81,2392.00
3132.13,2405.00
3133.45,2411.00
3134.76,2452.00
3136.08,2449.00
3137.39,2465.00
3138.71,2471.00
3140.02,2502.00
3141.34,2503.00
3142.65,2531.00
3143.96,2572.00
3145.27,2534.00
3146.58,2601.00
3147.89,2620.00
3149.20,2624.00
3150.51,2682.00
3151.82,2726.00
3153.13,2730.00
3154.43,2715.00
3155.74,2792.00
3157.04,2764.00
3158.35,2787.00
3159.65,2838.00
3160.96,2848.00
3162.26,2802.00
3163.56,2857.00
3164.86,2864.00
3166.16,2842.00
3167.46,2845.00
3168.76,2861.00
3170.06,2945.00
3171.36,2947.00
3172.66,2929.00
3173.95,2886.00
3175.25,2964.00
3176.54,2973.00
3177.84,3049.00
3179.13,3020.00
3180.43,3003.00
3181.72,3024.00
3183.01,3014.00
3184.30,3026.00
3185.59,3079.00
3186.88,3072.00
3188.17,3050.00
3189.46,3060.00
3190.75,3081.00
3192.04,3060.00
3193.32,3133.00
3194.61,3098.00
3195.90,3129.00
3197.18,3117.00
3198.47,3132.00
3199.75,3168.00
3201.03,3097.00
3202.32,3178.00
3203.60,3189.00
3204.88,3125.00
3206.16,3127.00
3207.44,3127.00
3208.72,3159.00
3210.00,3152.00
3211.27,3130.00
3212.55,3099.00
3213.83,3109.00
3215.10,3079.00
3216.38,3128.00
3217.65,3089.00
3218.93,3089.00
3220.20,3081.00
3221.47,3109.00
3222.74,3077.00
3224.01,3053.00
3225.29,3070.00
3226.56,3069.00
3227.82,3081.00
3229.09,3021.00
3230.36,3018.00
3231.63,3026.00
3232.90,3034.00
3234.16,3001.00
3235.43,2983.00
3236.69,2963.00
3237.96,3000.00
3239.22,3003.00
3240.48,2905.00
3241.74,2927.00
3243.01,2927.00
3244.27,2911.00
3245.53,2914.00
3246.79,2860.00
3248.04,2916.00
3249.30,2868.00
3250.56,2853.00
3251.82,2827.00
3253.07,2807.00
3254.33,2838.00
3255.58,2790.00
3256.84,2766.00
3258.09,2800.00
3259.35,2778.00
3260.60,2787.00
3261.85,2718.00
3263.10,2749.00
3264.35,2795.00
3265.60,2739.00
3266.85,2671.00
3268.10,2728.00
3269.35,2682.00
3270.59,2614.00
3271.84,2683.00
3273.09,2639.00
3274.33,2599.00
3275.58,2626.00
3276.82,2580.00
3278.06,2601.00
3279.31,2627.00
3280.55,2539.00
3281.79,2563.00
3283.03,2568.00
3284.27,2530.00
3285.51,2517.00
3286.75,2464.00
3287.99,2521.00
3289.23,2498.00
3290.46,2494.00
3291.70,2472.00
3292.93,2437.00
3294.17,2441.00
3295.40,2401.00
3296.64,2457.00
3297.87,2441.00
3299.10,2405.00
3300.33,2422.00
3301.57,2385.00
3302.80,2417.00
3304.03,2382.00
3305.26,2428.00
3306.48,2375.00
3307.71,2373.00
3308.94,2343.00
3310.17,2354.00
3311.39,2316.00
3312.62,2294.00
3313.84,2280.00
3315.07,2314.00
3316.29,2331.00
3317.51,2297.00
3318.73,2301.00
3319.96,2269.00
3321.18,2252.00
3322.40,2280.00
3323.62,2244.00
3324.84,2248.00
3326.05,2238.00
3327.27,2221.00
3328.49,2212.00
3329.70,2208.00
3330.92,2230.00
3332.14,2165.00
3333.35,2168.00
3334.56,2183.00
3335.78,2182.00
3336.99,2142.00
3338.20,2153.00
3339.41,2210.00
3340.62,2168.00
3341.83,2200.00
3343.04,2115.00
3344.25,2151.00
3345.46,2106.00
3346.67,2071.00
3347.87,2084.00
3349.08,2109.00
3350.29,2134.00
3351.49,2090.00
3352.70,2070.00
3353.90,2064.00
3355.10,2094.00
3356.30,2072.00
3357.51,2060.00
3358.71,2104.00
3359.91,2073.00
3361.11,2020.00
3362.31,2031.00
3363.50,2058.00
3364.70,2018.00
3365.90,2005.00
3367.10,2048.00
3368.29,2027.00
3369.49,1982.00
3370.68,2035.00
3371.88,2042.00
3373.07,1973.00
3374.26,1995.00
3375.46,2001.00
3376.65,2018.00
3377.84,1938.00
3379.03,1977.00
3380.22,1986.00
3381.41,1961.00
3382.60,1976.00
3383.78,1906.00
3384.97,1982.00
3386.16,1918.00
3387.34,1942.00
3388.53,1994.00
3389.71,1919.00
3390.90,1921.00
3392.08,1935.00
3393.26,1956.00
3394.44,1940.00
3395.63,1963.00
3396.81,1910.00
3397.99,1910.00
3399.17,1930.00
3400.35,1880.00
3401.52,1904.00
3402.70,1895.00
3403.88,1878.00
3405.05,1887.00
3406.23,1858.00
3407.41,1864.00
3408.58,1842.00
3409.75,1834.00
3410.93,1873.00
3412.10,1817.00
3413.27,1794.00
3414.44,1763.00
3415.61,1824.00
3416.78,1776.00
3417.95,1796.00
3419.12,1803.00
3420.29,1747.00
3421.46,1735.00
3422.62,1692.00
3423.79,1769.00
3424.96,1686.00
3426.12,1691.00
3427.29,1680.00
3428.45,1648.00
3429.61,1697.00
3430.78,1646.00
3431.94,1673.00
3433.10,1640.00
3434.26,1602.00
3435.42,1607.00
3436.58,1616.00
3437.74,1633.00
3438.90,1614.00
3440.05,1570.00
3441.21,1594.00
3442.37,1545.00
3443.52,1553.00
3444.68,1530.00
3445.83,1536.00
3446.99,1513.00
3448.14,1521.00
3449.29,1513.00
3450.44,1496.00
3451.59,1505.00
3452.74,1496.00
3453.89,1481.00
3455.04,1422.00
3456.19,1427.00
3457.34,1401.00
3458.49,1442.00
3459.64,1380.00
3460.78,1399.00
3461.93,1378.00
3463.07,1370.00
3464.22,1407.00
3465.36,1339.00
3466.50,1332.00
3467.65,1344.00
3468.79,1335.00
3469.93,1325.00
3471.07,1291.00
3472.21,1264.00
3473.35,1266.00
3474.49,1286.00
3475.63,1226.00
3476.76,1281.00
3477.90,1224.00
3479.04,1224.00
3480.17,1193.00
3481.31,1220.00
3482.44,1196.00
3483.58,1164.00
3484.71,1175.00
3485.84,1127.00
3486.97,1181.00
3488.10,1145.00
3489.24,1141.00
3490.37,1112.00
3491.50,1101.00
3492.62,1143.00
3493.75,1090.00
3494.88,1069.00
3496.01,1054.00
3497.13,1024.00
3498.26,1048.00
3499.38,1027.00
3500.51,1027.00
3501.63,974.00
3502.76,1016.00
3503.88,987.00
3505.00,993.00
3506.12,977.00
3507.24,963.00
3508.36,974.00
3509.48,887.00
3510.60,907.00
3511.72,909.00
3512.84,896.00
3513.95,889.00
3515.07,868.00
3516.19,871.00
3517.30,873.00
3518.42,893.00
3519.53,828.00
3520.64,805.00
3521.76,799.00
3522.87,803.00
3523.98,778.00
3525.09,746.00
3526.20,779.00
3527.31,727.00
3528.42,788.00
3529.53,718.00
3530.64,740.00
3531.74,704.00
3532.85,729.00
3533.95,700.00
3535.06,708.00
3536.16,742.00
3537.27,670.00
3538.37,684.00
3539.48,657.00
3540.58,651.00
3541.68,663.00
3542.78,649.00
3543.88,658.00
3544.98,640.00
3546.08,615.00
3547.18,602.00
3548.28,617.00
3549.37,587.00
3550.47,611.00
3551.57,601.00
3552.66,588.00
3553.76,560.00
3554.85,570.00
3555.94,562.00
3557.04,560.00
3558.13,534.00
3559.22,524.00
3560.31,535.00
3561.40,526.00
3562.49,503.00
3563.58,537.00
3564.67,496.00
3565.76,522.00
3566.85,473.00
3567.93,481.00
3569.02,470.00
3570.11,473.00
3571.19,476.00
3572.27,438.00
3573.36,459.00
3574.44,469.00
3575.52,453.00
3576.61,437.00
3577.69,444.00
3578.77,433.00
3579.85,418.00
3580.93,409.00
3582.01,434.00
3583.09,399.00
3584.16,382.00
3585.24,397.00
3586.32,408.00
3587.39,393.00
3588.47,353.00
3589.54,369.00
3590.62,384.00
3591.69,349.00
3592.76,351.00
3593.83,344.00
3594.91,360.00
3595.98,346.00
3597.05,319.00
3598.12,341.00
3599.19,317.00
3600.26,317.00
3601.32,313.00
3602.39,309.00
3603.46,306.00
3604.52,298.00
3605.59,315.00
3606.65,307.00
3607.72,275.00
3608.78,293.00
3609.84,294.00
3610.91,287.00
3611.97,250.00
3613.03,263.00
3614.09,277.00
3615.15,269.00
3616.21,290.00
3617.27,264.00
3618.33,232.00
3619.39,255.00
3620.44,258.00
3621.50,241.00
3622.55,236.00
3623.61,231.00
3624.66,222.00
3625.72,220.00
3626.77,228.00
3627.82,234.00
3628.88,211.00
3629.93,207.00
3630.98,211.00
3632.03,230.00
3633.08,186.00
3634.13,208.00
3635.18,173.00
3636.22,192.00
3637.27,199.00
3638.32,142.00
3639.36,198.00
3640.41,171.00
3641.45,173.00
3642.50,165.00
3643.54,167.00
3644.59,190.00
3645.63,144.00
3646.67,155.00
3647.71,146.00
3648.75,159.00
3649.79,133.00
3650.83,137.00
3651.87,161.00
3652.91,123.00
3653.95,127.00
3654.98,107.00
3656.02,127.00
3657.06,78.00
