ENLIGHTEN Version,1.6.8
Measurement ID,20190528-110056-788510-WP-00357
Serial Number,WP-00357
Label,Isopropanol
Integration Time,7
Timestamp,2019-05-28 11:00:56.788510
Note,
Temperature,-99
CCD C0,801.1829833984375
CCD C1,0.12474799901247025
CCD C2,-2.2862799596623518e-05
CCD C3,4.907460215974879e-09
CCD Offset,0
CCD Gain,1.9
Laser Wavelength,785.0
Laser Enable,False
Laser Power,100.0
Laser Temperature,-99
Pixel Count,1952

Wavenumber,Processed
257.31,0.00
259.25,0.00
261.19,0.00
263.13,210.00
265.07,-28.00
267.01,35.00
268.95,230.00
270.88,-33.00
272.82,460.00
274.75,-20.00
276.68,360.00
278.61,-166.00
280.54,279.00
282.46,-648.00
284.39,111.00
286.31,206.00
288.24,43.00
290.16,429.00
292.08,-52.00
294.00,282.00
295.92,-236.00
297.83,51.00
299.75,460.00
301.66,2.00
303.58,-234.00
305.49,13.00
307.40,267.00
309.31,-230.00
311.22,555.00
313.12,489.00
315.03,-24.00
316.93,-167.00
318.83,383.00
320.73,-453.00
322.63,247.00
324.53,-261.00
326.43,59.00
328.33,107.00
330.22,-131.00
332.12,463.00
334.01,131.00
335.90,143.00
337.79,128.00
339.68,-262.00
341.57,-20.00
343.45,-295.00
345.34,339.00
347.22,6.00
349.10,191.00
350.98,486.00
352.86,256.00
354.74,221.00
356.62,-152.00
358.50,-70.00
360.37,-282.00
362.24,204.00
364.12,543.00
365.99,409.00
367.86,280.00
369.73,308.00
371.59,515.00
373.46,538.00
375.33,87.00
377.19,523.00
379.05,684.00
380.91,140.00
382.77,711.00
384.63,792.00
386.49,477.00
388.35,952.00
390.20,509.00
392.06,1800.00
393.91,340.00
395.76,1736.00
397.61,1021.00
399.46,994.00
401.31,776.00
403.15,1118.00
405.00,1526.00
406.84,937.00
408.69,1303.00
410.53,1550.00
412.37,1994.00
414.21,2001.00
416.05,1285.00
417.88,2507.00
419.72,1898.00
421.55,2728.00
423.39,2829.00
425.22,3066.00
427.05,3487.00
428.88,3238.00
430.71,3461.00
432.54,2595.00
434.36,2651.00
436.19,2717.00
438.01,2844.00
439.83,2450.00
441.65,2170.00
443.48,1893.00
445.29,2782.00
447.11,2651.00
448.93,2435.00
450.74,1500.00
452.56,1744.00
454.37,1321.00
456.18,1643.00
457.99,976.00
459.80,1081.00
461.61,1221.00
463.42,1182.00
465.23,2225.00
467.03,1133.00
468.83,1282.00
470.64,1898.00
472.44,1977.00
474.24,1533.00
476.04,801.00
477.84,1144.00
479.63,2252.00
481.43,2971.00
483.22,2718.00
485.02,2899.00
486.81,3224.00
488.60,3323.00
490.39,2983.00
492.18,2532.00
493.96,2110.00
495.75,2444.00
497.54,2050.00
499.32,1569.00
501.10,1799.00
502.88,1933.00
504.67,1528.00
506.45,1019.00
508.22,1734.00
510.00,667.00
511.78,1590.00
513.55,1094.00
515.33,-97.00
517.10,892.00
518.87,1662.00
520.64,346.00
522.41,994.00
524.18,263.00
525.94,487.00
527.71,1182.00
529.47,454.00
531.24,565.00
533.00,1205.00
534.76,234.00
536.52,5.00
538.28,902.00
540.04,299.00
541.80,471.00
543.55,958.00
545.31,-115.00
547.06,932.00
548.81,838.00
550.56,521.00
552.31,292.00
554.06,539.00
555.81,898.00
557.56,479.00
559.30,99.00
561.05,669.00
562.79,756.00
564.53,1060.00
566.28,151.00
568.02,1259.00
569.75,-152.00
571.49,319.00
573.23,894.00
574.97,763.00
576.70,566.00
578.43,1198.00
580.17,709.00
581.90,730.00
583.63,1077.00
585.36,343.00
587.09,447.00
588.81,348.00
590.54,-59.00
592.26,1062.00
593.99,180.00
595.71,665.00
597.43,557.00
599.15,862.00
600.87,-226.00
602.59,666.00
604.31,157.00
606.02,546.00
607.74,830.00
609.45,732.00
611.17,1105.00
612.88,155.00
614.59,840.00
616.30,596.00
618.01,406.00
619.71,586.00
621.42,21.00
623.13,670.00
624.83,607.00
626.53,442.00
628.24,1109.00
629.94,816.00
631.64,940.00
633.34,324.00
635.04,613.00
636.73,456.00
638.43,1605.00
640.12,905.00
641.82,1303.00
643.51,1161.00
645.20,616.00
646.89,800.00
648.58,513.00
650.27,913.00
651.96,106.00
653.65,1010.00
655.33,1244.00
657.02,1515.00
658.70,176.00
660.38,871.00
662.06,741.00
663.74,420.00
665.42,1181.00
667.10,831.00
668.78,784.00
670.45,880.00
672.13,923.00
673.80,650.00
675.48,450.00
677.15,1009.00
678.82,1472.00
680.49,1044.00
682.16,563.00
683.83,1372.00
685.49,962.00
687.16,681.00
688.82,801.00
690.49,76.00
692.15,601.00
693.81,112.00
695.47,801.00
697.13,1172.00
698.79,170.00
700.45,871.00
702.11,743.00
703.76,484.00
705.42,25.00
707.07,1250.00
708.72,1146.00
710.37,997.00
712.02,512.00
713.67,695.00
715.32,623.00
716.97,768.00
718.62,497.00
720.26,51.00
721.91,-91.00
723.55,569.00
725.19,663.00
726.84,953.00
728.48,1312.00
730.12,736.00
731.75,702.00
733.39,902.00
735.03,722.00
736.66,175.00
738.30,759.00
739.93,792.00
741.57,933.00
743.20,522.00
744.83,661.00
746.46,342.00
748.09,188.00
749.71,1278.00
751.34,285.00
752.97,202.00
754.59,951.00
756.22,704.00
757.84,877.00
759.46,756.00
761.08,1050.00
762.70,318.00
764.32,407.00
765.94,1253.00
767.56,837.00
769.17,743.00
770.79,1283.00
772.40,370.00
774.01,1038.00
775.63,473.00
777.24,1228.00
778.85,569.00
780.46,1409.00
782.07,294.00
783.67,580.00
785.28,1853.00
786.88,1017.00
788.49,1328.00
790.09,1462.00
791.70,746.00
793.30,1833.00
794.90,1196.00
796.50,3296.00
798.10,2059.00
799.69,2730.00
801.29,4783.00
802.89,4803.00
804.48,7652.00
806.08,8485.00
807.67,12146.00
809.26,16606.00
810.85,22358.00
812.44,27605.00
814.03,33902.00
815.62,38082.00
817.21,42071.00
818.79,41837.00
820.38,42216.00
821.96,37022.00
823.55,34616.00
825.13,27526.00
826.71,22316.00
828.29,16711.00
829.87,12719.00
831.45,9894.00
833.03,7128.00
834.61,4642.00
836.18,4251.00
837.76,3053.00
839.33,2572.00
840.91,2747.00
842.48,2755.00
844.05,1445.00
845.62,2085.00
847.19,1538.00
848.76,1641.00
850.33,1458.00
851.90,2077.00
853.46,1326.00
855.03,1613.00
856.59,526.00
858.15,698.00
859.72,1250.00
861.28,1861.00
862.84,578.00
864.40,1728.00
865.96,112.00
867.52,1174.00
869.07,885.00
870.63,572.00
872.18,939.00
873.74,1119.00
875.29,646.00
876.84,1524.00
878.40,1004.00
879.95,486.00
881.50,1311.00
883.04,2246.00
884.59,282.00
886.14,648.00
887.69,1748.00
889.23,914.00
890.78,1130.00
892.32,1409.00
893.86,787.00
895.40,1955.00
896.94,1428.00
898.48,812.00
900.02,1308.00
901.56,1454.00
903.10,1629.00
904.63,1705.00
906.17,987.00
907.70,2023.00
909.24,1677.00
910.77,1851.00
912.30,1893.00
913.83,2464.00
915.36,2688.00
916.89,2429.00
918.42,2738.00
919.95,1916.00
921.48,3033.00
923.00,4000.00
924.53,4423.00
926.05,3770.00
927.57,3551.00
929.10,4456.00
930.62,5112.00
932.14,5603.00
933.66,4692.00
935.18,5014.00
936.70,6251.00
938.21,5872.00
939.73,7807.00
941.24,8600.00
942.76,8266.00
944.27,9221.00
945.79,8188.00
947.30,8480.00
948.81,9313.00
950.32,9758.00
951.83,9159.00
953.34,9446.00
954.84,8347.00
956.35,9134.00
957.86,7647.00
959.36,7822.00
960.87,4930.00
962.37,5359.00
963.87,5186.00
965.37,4886.00
966.88,3059.00
968.38,3938.00
969.87,2714.00
971.37,1870.00
972.87,1912.00
974.37,2424.00
975.86,1744.00
977.36,701.00
978.85,1934.00
980.35,857.00
981.84,1664.00
983.33,1020.00
984.82,1722.00
986.31,1797.00
987.80,1750.00
989.29,1103.00
990.77,596.00
992.26,1016.00
993.75,450.00
995.23,631.00
996.72,692.00
998.20,462.00
999.68,1480.00
1001.16,1059.00
1002.64,683.00
1004.12,1031.00
1005.60,236.00
1007.08,1276.00
1008.56,823.00
1010.04,428.00
1011.51,888.00
1012.99,537.00
1014.46,780.00
1015.93,1105.00
1017.41,605.00
1018.88,-46.00
1020.35,688.00
1021.82,1353.00
1023.29,817.00
1024.76,1487.00
1026.23,1005.00
1027.69,1048.00
1029.16,835.00
1030.62,438.00
1032.09,87.00
1033.55,250.00
1035.02,181.00
1036.48,389.00
1037.94,583.00
1039.40,363.00
1040.86,207.00
1042.32,79.00
1043.78,219.00
1045.23,362.00
1046.69,725.00
1048.15,335.00
1049.60,622.00
1051.05,580.00
1052.51,1071.00
1053.96,888.00
1055.41,742.00
1056.86,-245.00
1058.31,94.00
1059.76,952.00
1061.21,1400.00
1062.66,158.00
1064.10,791.00
1065.55,419.00
1067.00,1032.00
1068.44,1048.00
1069.88,1659.00
1071.33,390.00
1072.77,410.00
1074.21,886.00
1075.65,1159.00
1077.09,904.00
1078.53,578.00
1079.97,1128.00
1081.41,1115.00
1082.84,1306.00
1084.28,525.00
1085.71,1130.00
1087.15,865.00
1088.58,1529.00
1090.02,1712.00
1091.45,2014.00
1092.88,1318.00
1094.31,2072.00
1095.74,1759.00
1097.17,2948.00
1098.60,1479.00
1100.02,2484.00
1101.45,3017.00
1102.88,3748.00
1104.30,3707.00
1105.73,3454.00
1107.15,3370.00
1108.57,3934.00
1109.99,3503.00
1111.42,5127.00
1112.84,4482.00
1114.26,4146.00
1115.68,5305.00
1117.09,4594.00
1118.51,5078.00
1119.93,5353.00
1121.34,6118.00
1122.76,5705.00
1124.17,5699.00
1125.59,6537.00
1127.00,5442.00
1128.41,6550.00
1129.82,6191.00
1131.24,5793.00
1132.65,5510.00
1134.05,5334.00
1135.46,6071.00
1136.87,6558.00
1138.28,5892.00
1139.68,5515.00
1141.09,4441.00
1142.50,4680.00
1143.90,4231.00
1145.30,3918.00
1146.71,3426.00
1148.11,4103.00
1149.51,2237.00
1150.91,3704.00
1152.31,3683.00
1153.71,3399.00
1155.11,3511.00
1156.50,3868.00
1157.90,2609.00
1159.30,4300.00
1160.69,4175.00
1162.08,4813.00
1163.48,3767.00
1164.87,3441.00
1166.26,3445.00
1167.66,3353.00
1169.05,3503.00
1170.44,3177.00
1171.83,2840.00
1173.21,2755.00
1174.60,2627.00
1175.99,2310.00
1177.38,2333.00
1178.76,2185.00
1180.15,1723.00
1181.53,1807.00
1182.92,2083.00
1184.30,1332.00
1185.68,1730.00
1187.06,1343.00
1188.44,1219.00
1189.82,1333.00
1191.20,1646.00
1192.58,1497.00
1193.96,725.00
1195.34,885.00
1196.71,999.00
1198.09,687.00
1199.46,583.00
1200.84,1680.00
1202.21,768.00
1203.58,963.00
1204.96,507.00
1206.33,1101.00
1207.70,979.00
1209.07,801.00
1210.44,584.00
1211.81,239.00
1213.17,1028.00
1214.54,1024.00
1215.91,531.00
1217.27,1503.00
1218.64,879.00
1220.00,1681.00
1221.37,1324.00
1222.73,553.00
1224.09,1338.00
1225.45,1269.00
1226.82,716.00
1228.18,525.00
1229.54,793.00
1230.89,638.00
1232.25,643.00
1233.61,80.00
1234.97,750.00
1236.32,1806.00
1237.68,1101.00
1239.03,1002.00
1240.39,968.00
1241.74,1139.00
1243.09,360.00
1244.45,1290.00
1245.80,913.00
1247.15,1032.00
1248.50,903.00
1249.85,456.00
1251.20,1006.00
1252.54,580.00
1253.89,642.00
1255.24,204.00
1256.58,314.00
1257.93,1018.00
1259.27,54.00
1260.62,300.00
1261.96,295.00
1263.30,155.00
1264.64,902.00
1265.98,829.00
1267.33,455.00
1268.67,372.00
1270.00,812.00
1271.34,301.00
1272.68,623.00
1274.02,1250.00
1275.35,828.00
1276.69,903.00
1278.03,1905.00
1279.36,932.00
1280.69,2008.00
1282.03,1087.00
1283.36,1152.00
1284.69,1039.00
1286.02,1154.00
1287.35,878.00
1288.68,1101.00
1290.01,939.00
1291.34,1601.00
1292.67,1419.00
1294.00,2257.00
1295.32,1772.00
1296.65,975.00
1297.97,1453.00
1299.30,1934.00
1300.62,1668.00
1301.94,1501.00
1303.27,1254.00
1304.59,1461.00
1305.91,1694.00
1307.23,1888.00
1308.55,2286.00
1309.87,1739.00
1311.19,1937.00
1312.51,1071.00
1313.82,2141.00
1315.14,2186.00
1316.46,1731.00
1317.77,1561.00
1319.09,2119.00
1320.40,1956.00
1321.72,1950.00
1323.03,1612.00
1324.34,1995.00
1325.65,1933.00
1326.96,2841.00
1328.27,2076.00
1329.58,2257.00
1330.89,2128.00
1332.20,2934.00
1333.51,2919.00
1334.82,3316.00
1336.12,2064.00
1337.43,2586.00
1338.73,2223.00
1340.04,3009.00
1341.34,2231.00
1342.65,2919.00
1343.95,3404.00
1345.25,2231.00
1346.55,2998.00
1347.85,3242.00
1349.15,2015.00
1350.45,2546.00
1351.75,1377.00
1353.05,2021.00
1354.35,3096.00
1355.65,2101.00
1356.94,2344.00
1358.24,1602.00
1359.53,2110.00
1360.83,1326.00
1362.12,1855.00
1363.42,2221.00
1364.71,1988.00
1366.00,2382.00
1367.29,2143.00
1368.58,1826.00
1369.87,1451.00
1371.16,971.00
1372.45,2062.00
1373.74,1863.00
1375.03,2398.00
1376.32,1340.00
1377.60,1364.00
1378.89,1713.00
1380.17,908.00
1381.46,1576.00
1382.74,1146.00
1384.03,2158.00
1385.31,2318.00
1386.59,1786.00
1387.87,1763.00
1389.15,1914.00
1390.43,1632.00
1391.71,2059.00
1392.99,1823.00
1394.27,2387.00
1395.55,1695.00
1396.83,2443.00
1398.11,2710.00
1399.38,2016.00
1400.66,1809.00
1401.93,1886.00
1403.21,2851.00
1404.48,2950.00
1405.75,3124.00
1407.03,3151.00
1408.30,3713.00
1409.57,3125.00
1410.84,3256.00
1412.11,3579.00
1413.38,3802.00
1414.65,3683.00
1415.92,3569.00
1417.19,3591.00
1418.46,3096.00
1419.72,2981.00
1420.99,3237.00
1422.25,3369.00
1423.52,3669.00
1424.78,4355.00
1426.05,3649.00
1427.31,4343.00
1428.57,3856.00
1429.84,4895.00
1431.10,5282.00
1432.36,4429.00
1433.62,4917.00
1434.88,6014.00
1436.14,5219.00
1437.40,6915.00
1438.65,5307.00
1439.91,6598.00
1441.17,7390.00
1442.43,8280.00
1443.68,8934.00
1444.94,9042.00
1446.19,9978.00
1447.44,9323.00
1448.70,9740.00
1449.95,9338.00
1451.20,10035.00
1452.46,10640.00
1453.71,9997.00
1454.96,9150.00
1456.21,9236.00
1457.46,9772.00
1458.71,7980.00
1459.95,10304.00
1461.20,9258.00
1462.45,9545.00
1463.70,7826.00
1464.94,8987.00
1466.19,8937.00
1467.43,8024.00
1468.68,6742.00
1469.92,6453.00
1471.16,6145.00
1472.41,6091.00
1473.65,5591.00
1474.89,5133.00
1476.13,4185.00
1477.37,3604.00
1478.61,4201.00
1479.85,3360.00
1481.09,3285.00
1482.33,2394.00
1483.57,2661.00
1484.80,3386.00
1486.04,2934.00
1487.28,1801.00
1488.51,2601.00
1489.75,2183.00
1490.98,2259.00
1492.21,2127.00
1493.45,2420.00
1494.68,2228.00
1495.91,1791.00
1497.14,1882.00
1498.37,1635.00
1499.61,1786.00
1500.84,831.00
1502.06,1188.00
1503.29,820.00
1504.52,1117.00
1505.75,1367.00
1506.98,1025.00
1508.20,1416.00
1509.43,221.00
1510.66,759.00
1511.88,589.00
1513.11,1095.00
1514.33,1506.00
1515.55,484.00
1516.78,1545.00
1518.00,1146.00
1519.22,743.00
1520.44,1041.00
1521.66,443.00
1522.88,439.00
1524.10,510.00
1525.32,985.00
1526.54,744.00
1527.76,632.00
1528.98,551.00
1530.19,1014.00
1531.41,1244.00
1532.63,860.00
1533.84,376.00
1535.06,352.00
1536.27,311.00
1537.48,-427.00
1538.70,-229.00
1539.91,-75.00
1541.12,405.00
1542.33,381.00
1543.55,487.00
1544.76,236.00
1545.97,598.00
1547.18,1326.00
1548.39,679.00
1549.59,364.00
1550.80,728.00
1552.01,325.00
1553.22,708.00
1554.42,-559.00
1555.63,257.00
1556.84,1388.00
1558.04,-218.00
1559.24,614.00
1560.45,120.00
1561.65,737.00
1562.86,350.00
1564.06,-1.00
1565.26,551.00
1566.46,583.00
1567.66,1385.00
1568.86,810.00
1570.06,99.00
1571.26,555.00
1572.46,-7.00
1573.66,285.00
1574.86,471.00
1576.05,648.00
1577.25,-117.00
1578.45,-366.00
1579.64,111.00
1580.84,801.00
1582.03,38.00
1583.23,-186.00
1584.42,659.00
1585.61,-65.00
1586.81,112.00
1588.00,-74.00
1589.19,-140.00
1590.38,-58.00
1591.57,271.00
1592.76,252.00
1593.95,377.00
1595.14,106.00
1596.33,-54.00
1597.52,850.00
1598.71,180.00
1599.90,517.00
1601.08,313.00
1602.27,-51.00
1603.45,636.00
1604.64,821.00
1605.83,473.00
1607.01,431.00
1608.19,-223.00
1609.38,882.00
1610.56,114.00
1611.74,556.00
1612.92,971.00
1614.11,376.00
1615.29,412.00
1616.47,60.00
1617.65,-233.00
1618.83,-154.00
1620.01,497.00
1621.18,463.00
1622.36,1007.00
1623.54,-176.00
1624.72,739.00
1625.89,306.00
1627.07,177.00
1628.25,927.00
1629.42,336.00
1630.60,768.00
1631.77,812.00
1632.94,333.00
1634.12,1060.00
1635.29,-142.00
1636.46,563.00
1637.63,107.00
1638.80,409.00
1639.98,47.00
1641.15,249.00
1642.32,24.00
1643.49,-378.00
1644.65,3.00
1645.82,537.00
1646.99,425.00
1648.16,212.00
1649.33,383.00
1650.49,372.00
1651.66,942.00
1652.82,193.00
1653.99,-50.00
1655.15,-160.00
1656.32,672.00
1657.48,390.00
1658.65,87.00
1659.81,791.00
1660.97,250.00
1662.13,131.00
1663.29,883.00
1664.45,561.00
1665.62,507.00
1666.78,194.00
1667.94,-71.00
1669.09,-99.00
1670.25,676.00
1671.41,510.00
1672.57,332.00
1673.73,43.00
1674.88,387.00
1676.04,535.00
1677.20,248.00
1678.35,-132.00
1679.51,-489.00
1680.66,353.00
1681.82,-206.00
1682.97,149.00
1684.12,625.00
1685.27,-651.00
1686.43,-107.00
1687.58,346.00
1688.73,-368.00
1689.88,54.00
1691.03,1086.00
1692.18,376.00
1693.33,1226.00
1694.48,12.00
1695.63,707.00
1696.78,2.00
1697.93,733.00
1699.07,357.00
1700.22,-13.00
1701.37,1136.00
1702.51,705.00
1703.66,121.00
1704.80,-360.00
1705.95,-49.00
1707.09,-44.00
1708.24,466.00
1709.38,618.00
1710.52,538.00
1711.67,602.00
1712.81,183.00
1713.95,45.00
1715.09,-91.00
1716.23,276.00
1717.37,-5.00
1718.51,534.00
1719.65,-435.00
1720.79,943.00
1721.93,-98.00
1723.07,412.00
1724.20,479.00
1725.34,648.00
1726.48,954.00
1727.62,297.00
1728.75,648.00
1729.89,-170.00
1731.02,629.00
1732.16,752.00
1733.29,676.00
1734.43,-52.00
1735.56,584.00
1736.69,-42.00
1737.82,1052.00
1738.96,631.00
1740.09,247.00
1741.22,626.00
1742.35,1041.00
1743.48,-948.00
1744.61,713.00
1745.74,-56.00
1746.87,603.00
1748.00,715.00
1749.13,-56.00
1750.25,-289.00
1751.38,-310.00
1752.51,358.00
1753.64,-538.00
1754.76,-273.00
1755.89,538.00
1757.01,-295.00
1758.14,415.00
1759.26,585.00
1760.39,582.00
1761.51,464.00
1762.63,415.00
1763.76,628.00
1764.88,462.00
1766.00,256.00
1767.12,185.00
1768.24,44.00
1769.37,181.00
1770.49,-154.00
1771.61,118.00
1772.73,65.00
1773.85,230.00
1774.96,74.00
1776.08,56.00
1777.20,101.00
1778.32,403.00
1779.44,25.00
1780.55,-45.00
1781.67,426.00
1782.78,619.00
1783.90,-444.00
1785.01,187.00
1786.13,602.00
1787.24,233.00
1788.36,703.00
1789.47,439.00
1790.58,-88.00
1791.70,306.00
1792.81,755.00
1793.92,33.00
1795.03,167.00
1796.14,-364.00
1797.26,-254.00
1798.37,-125.00
1799.48,9.00
1800.58,-127.00
1801.69,-335.00
1802.80,-435.00
1803.91,-102.00
1805.02,778.00
1806.13,436.00
1807.23,-310.00
1808.34,113.00
1809.45,157.00
1810.55,171.00
1811.66,8.00
1812.76,487.00
1813.87,46.00
1814.97,686.00
1816.08,-321.00
1817.18,536.00
1818.28,186.00
1819.39,404.00
1820.49,368.00
1821.59,13.00
1822.69,115.00
1823.79,794.00
1824.90,-293.00
1826.00,-40.00
1827.10,77.00
1828.20,-609.00
1829.30,442.00
1830.39,198.00
1831.49,81.00
1832.59,-85.00
1833.69,302.00
1834.79,122.00
1835.88,4.00
1836.98,-153.00
1838.08,408.00
1839.17,182.00
1840.27,-65.00
1841.36,-395.00
1842.46,500.00
1843.55,344.00
1844.65,-82.00
1845.74,137.00
1846.83,40.00
1847.93,330.00
1849.02,-349.00
1850.11,204.00
1851.20,-557.00
1852.30,650.00
1853.39,469.00
1854.48,-20.00
1855.57,595.00
1856.66,352.00
1857.75,-110.00
1858.84,-20.00
1859.93,28.00
1861.01,74.00
1862.10,-32.00
1863.19,384.00
1864.28,-58.00
1865.37,324.00
1866.45,897.00
1867.54,122.00
1868.62,225.00
1869.71,125.00
1870.79,-205.00
1871.88,-53.00
1872.96,-90.00
1874.05,-17.00
1875.13,-72.00
1876.22,431.00
1877.30,79.00
1878.38,-219.00
1879.46,328.00
1880.55,-427.00
1881.63,-165.00
1882.71,223.00
1883.79,526.00
1884.87,972.00
1885.95,289.00
1887.03,676.00
1888.11,462.00
1889.19,353.00
1890.27,-28.00
1891.35,-83.00
1892.42,189.00
1893.50,-214.00
1894.58,212.00
1895.66,-196.00
1896.73,159.00
1897.81,131.00
1898.89,845.00
1899.96,-604.00
1901.04,438.00
1902.11,-22.00
1903.19,1008.00
1904.26,69.00
1905.33,-187.00
1906.41,109.00
1907.48,-1.00
1908.55,218.00
1909.63,547.00
1910.70,588.00
1911.77,1026.00
1912.84,9.00
1913.91,536.00
1914.98,-430.00
1916.05,10.00
1917.12,-109.00
1918.19,63.00
1919.26,-105.00
1920.33,211.00
1921.40,-1.00
1922.47,-226.00
1923.54,-290.00
1924.60,-590.00
1925.67,733.00
1926.74,-354.00
1927.80,-91.00
1928.87,-268.00
1929.94,-366.00
1931.00,477.00
1932.07,116.00
1933.13,-351.00
1934.20,-185.00
1935.26,370.00
1936.33,-209.00
1937.39,88.00
1938.45,-238.00
1939.52,165.00
1940.58,195.00
1941.64,4.00
1942.70,730.00
1943.76,-164.00
1944.83,-135.00
1945.89,-306.00
1946.95,-51.00
1948.01,205.00
1949.07,-129.00
1950.13,-220.00
1951.19,-273.00
1952.25,69.00
1953.30,-258.00
1954.36,212.00
1955.42,826.00
1956.48,-69.00
1957.54,-144.00
1958.59,416.00
1959.65,96.00
1960.71,337.00
1961.76,-98.00
1962.82,522.00
1963.87,19.00
1964.93,-366.00
1965.98,234.00
1967.04,-66.00
1968.09,253.00
1969.15,165.00
1970.20,-2.00
1971.25,655.00
1972.31,447.00
1973.36,-230.00
1974.41,-42.00
1975.46,-189.00
1976.51,162.00
1977.57,-51.00
1978.62,-393.00
1979.67,176.00
1980.72,322.00
1981.77,-510.00
1982.82,364.00
1983.87,161.00
1984.92,45.00
1985.96,588.00
1987.01,144.00
1988.06,821.00
1989.11,807.00
1990.16,415.00
1991.20,-23.00
1992.25,501.00
1993.30,58.00
1994.34,-390.00
1995.39,-109.00
1996.44,155.00
1997.48,-508.00
1998.53,109.00
1999.57,357.00
2000.62,504.00
2001.66,-44.00
2002.70,-77.00
2003.75,279.00
2004.79,58.00
2005.83,96.00
2006.88,-108.00
2007.92,401.00
2008.96,76.00
2010.00,-261.00
2011.04,-37.00
2012.08,161.00
2013.13,219.00
2014.17,39.00
2015.21,-371.00
2016.25,413.00
2017.29,377.00
2018.33,-199.00
2019.36,-98.00
2020.40,322.00
2021.44,431.00
2022.48,-238.00
2023.52,-357.00
2024.56,-961.00
2025.59,28.00
2026.63,36.00
2027.67,694.00
2028.70,-181.00
2029.74,3.00
2030.78,-224.00
2031.81,461.00
2032.85,-88.00
2033.88,-759.00
2034.92,-76.00
2035.95,644.00
2036.98,-123.00
2038.02,221.00
2039.05,51.00
2040.08,-230.00
2041.12,56.00
2042.15,-41.00
2043.18,343.00
2044.21,302.00
2045.25,591.00
2046.28,698.00
2047.31,212.00
2048.34,301.00
2049.37,98.00
2050.40,-112.00
2051.43,431.00
2052.46,-190.00
2053.49,56.00
2054.52,639.00
2055.55,-13.00
2056.58,189.00
2057.61,-95.00
2058.63,212.00
2059.66,-405.00
2060.69,188.00
2061.72,823.00
2062.74,833.00
2063.77,422.00
2064.80,279.00
2065.82,677.00
2066.85,-229.00
2067.87,-265.00
2068.90,-217.00
2069.92,700.00
2070.95,-608.00
2071.97,304.00
2073.00,414.00
2074.02,-575.00
2075.05,806.00
2076.07,474.00
2077.09,620.00
2078.12,672.00
2079.14,-208.00
2080.16,-524.00
2081.18,569.00
2082.20,146.00
2083.23,203.00
2084.25,59.00
2085.27,167.00
2086.29,-117.00
2087.31,-273.00
2088.33,105.00
2089.35,-37.00
2090.37,398.00
2091.39,-178.00
2092.41,51.00
2093.43,112.00
2094.44,-19.00
2095.46,354.00
2096.48,-192.00
2097.50,447.00
2098.52,276.00
2099.53,135.00
2100.55,-138.00
2101.57,-207.00
2102.58,186.00
2103.60,360.00
2104.62,409.00
2105.63,107.00
2106.65,-97.00
2107.66,62.00
2108.68,-116.00
2109.69,-240.00
2110.71,577.00
2111.72,429.00
2112.73,403.00
2113.75,-602.00
2114.76,-62.00
2115.77,38.00
2116.79,286.00
2117.80,-728.00
2118.81,268.00
2119.82,399.00
2120.84,64.00
2121.85,288.00
2122.86,2.00
2123.87,176.00
2124.88,-440.00
2125.89,520.00
2126.90,1030.00
2127.91,319.00
2128.92,278.00
2129.93,175.00
2130.94,-142.00
2131.95,56.00
2132.96,662.00
2133.97,-54.00
2134.97,146.00
2135.98,534.00
2136.99,741.00
2138.00,-315.00
2139.01,-377.00
2140.01,118.00
2141.02,685.00
2142.03,34.00
2143.03,-402.00
2144.04,-78.00
2145.04,405.00
2146.05,853.00
2147.06,225.00
2148.06,-244.00
2149.07,363.00
2150.07,-135.00
2151.07,-349.00
2152.08,516.00
2153.08,1029.00
2154.09,-175.00
2155.09,-274.00
2156.09,-205.00
2157.10,482.00
2158.10,-356.00
2159.10,828.00
2160.10,-81.00
2161.11,706.00
2162.11,61.00
2163.11,484.00
2164.11,-9.00
2165.11,386.00
2166.11,-205.00
2167.11,224.00
2168.11,-139.00
2169.11,75.00
2170.11,-624.00
2171.11,395.00
2172.11,99.00
2173.11,362.00
2174.11,255.00
2175.11,273.00
2176.11,-24.00
2177.11,104.00
2178.10,265.00
2179.10,-111.00
2180.10,-52.00
2181.10,-136.00
2182.09,219.00
2183.09,38.00
2184.09,221.00
2185.08,439.00
2186.08,-32.00
2187.08,651.00
2188.07,156.00
2189.07,586.00
2190.06,795.00
2191.06,277.00
2192.05,377.00
2193.05,429.00
2194.04,317.00
2195.04,93.00
2196.03,121.00
2197.02,-406.00
2198.02,112.00
2199.01,-195.00
2200.00,-152.00
2201.00,-318.00
2201.99,94.00
2202.98,-399.00
2203.97,-322.00
2204.97,220.00
2205.96,-155.00
2206.95,132.00
2207.94,-371.00
2208.93,396.00
2209.92,146.00
2210.91,-272.00
2211.90,634.00
2212.89,-40.00
2213.88,-51.00
2214.87,-157.00
2215.86,287.00
2216.85,-225.00
2217.84,264.00
2218.83,378.00
2219.82,918.00
2220.81,-378.00
2221.80,-675.00
2222.78,508.00
2223.77,279.00
2224.76,405.00
2225.75,42.00
2226.73,30.00
2227.72,416.00
2228.71,244.00
2229.70,741.00
2230.68,-169.00
2231.67,-163.00
2232.65,655.00
2233.64,385.00
2234.63,393.00
2235.61,60.00
2236.60,-103.00
2237.58,432.00
2238.57,556.00
2239.55,15.00
2240.53,43.00
2241.52,-178.00
2242.50,-61.00
2243.49,-106.00
2244.47,855.00
2245.45,-278.00
2246.44,10.00
2247.42,333.00
2248.40,230.00
2249.38,454.00
2250.37,396.00
2251.35,275.00
2252.33,212.00
2253.31,-292.00
2254.29,-269.00
2255.28,342.00
2256.26,546.00
2257.24,381.00
2258.22,-163.00
2259.20,718.00
2260.18,-134.00
2261.16,34.00
2262.14,-163.00
2263.12,6.00
2264.10,525.00
2265.08,-650.00
2266.06,33.00
2267.04,501.00
2268.01,-431.00
2268.99,-22.00
2269.97,301.00
2270.95,518.00
2271.93,-31.00
2272.90,225.00
2273.88,-53.00
2274.86,568.00
2275.84,250.00
2276.81,357.00
2277.79,-173.00
2278.77,-124.00
2279.74,95.00
2280.72,185.00
2281.70,391.00
2282.67,185.00
2283.65,-371.00
2284.62,-195.00
2285.60,635.00
2286.57,492.00
2287.55,93.00
2288.52,-119.00
2289.50,179.00
2290.47,574.00
2291.45,309.00
2292.42,-69.00
2293.39,-417.00
2294.37,-53.00
2295.34,536.00
2296.31,32.00
2297.29,142.00
2298.26,315.00
2299.23,-276.00
2300.21,529.00
2301.18,-32.00
2302.15,-26.00
2303.12,328.00
2304.09,-85.00
2305.07,569.00
2306.04,407.00
2307.01,-13.00
2307.98,219.00
2308.95,185.00
2309.92,-164.00
2310.89,360.00
2311.86,18.00
2312.83,28.00
2313.80,-44.00
2314.77,541.00
2315.74,-497.00
2316.71,-39.00
2317.68,697.00
2318.65,-9.00
2319.62,-287.00
2320.59,472.00
2321.56,-17.00
2322.53,-29.00
2323.49,-227.00
2324.46,438.00
2325.43,-717.00
2326.40,392.00
2327.36,667.00
2328.33,-306.00
2329.30,205.00
2330.27,205.00
2331.23,-56.00
2332.20,140.00
2333.17,-11.00
2334.13,659.00
2335.10,-130.00
2336.07,223.00
2337.03,563.00
2338.00,-556.00
2338.96,334.00
2339.93,602.00
2340.89,518.00
2341.86,611.00
2342.82,154.00
2343.79,178.00
2344.75,1058.00
2345.72,114.00
2346.68,-83.00
2347.64,638.00
2348.61,309.00
2349.57,266.00
2350.54,-255.00
2351.50,206.00
2352.46,199.00
2353.43,938.00
2354.39,569.00
2355.35,-250.00
2356.31,75.00
2357.28,-224.00
2358.24,83.00
2359.20,587.00
2360.16,89.00
2361.12,-226.00
2362.09,-299.00
2363.05,-414.00
2364.01,-197.00
2364.97,765.00
2365.93,-74.00
2366.89,206.00
2367.85,-164.00
2368.81,883.00
2369.77,-118.00
2370.73,97.00
2371.69,49.00
2372.65,244.00
2373.61,532.00
2374.57,235.00
2375.53,-763.00
2376.49,-145.00
2377.45,153.00
2378.41,-105.00
2379.37,-175.00
2380.33,709.00
2381.29,49.00
2382.24,609.00
2383.20,510.00
2384.16,468.00
2385.12,-539.00
2386.08,380.00
2387.03,494.00
2387.99,185.00
2388.95,426.00
2389.91,-222.00
2390.86,360.00
2391.82,-496.00
2392.78,525.00
2393.73,231.00
2394.69,-272.00
2395.65,298.00
2396.60,410.00
2397.56,-293.00
2398.51,-376.00
2399.47,-275.00
2400.43,694.00
2401.38,808.00
2402.34,-424.00
2403.29,-297.00
2404.25,69.00
2405.20,470.00
2406.16,47.00
2407.11,-204.00
2408.07,-537.00
2409.02,99.00
2409.97,491.00
2410.93,321.00
2411.88,1362.00
2412.84,668.00
2413.79,-23.00
2414.74,462.00
2415.70,245.00
2416.65,733.00
2417.60,-51.00
2418.55,-715.00
2419.51,835.00
2420.46,-56.00
2421.41,283.00
2422.37,456.00
2423.32,586.00
2424.27,-107.00
2425.22,1060.00
2426.17,-316.00
2427.12,619.00
2428.08,-31.00
2429.03,-636.00
2429.98,352.00
2430.93,-262.00
2431.88,60.00
2432.83,196.00
2433.78,643.00
2434.73,629.00
2435.68,914.00
2436.63,-184.00
2437.58,8.00
2438.53,252.00
2439.48,-66.00
2440.43,-554.00
2441.38,292.00
2442.33,-409.00
2443.28,-600.00
2444.23,6.00
2445.18,-37.00
2446.13,487.00
2447.08,-286.00
2448.03,18.00
2448.98,1.00
2449.92,777.00
2450.87,-480.00
2451.82,-27.00
2452.77,-277.00
2453.72,-121.00
2454.67,468.00
2455.61,-28.00
2456.56,641.00
2457.51,443.00
2458.46,230.00
2459.40,-13.00
2460.35,878.00
2461.30,339.00
2462.24,694.00
2463.19,-525.00
2464.14,-21.00
2465.08,-154.00
2466.03,447.00
2466.98,-168.00
2467.92,-73.00
2468.87,148.00
2469.81,-72.00
2470.76,533.00
2471.71,-186.00
2472.65,402.00
2473.60,-466.00
2474.54,-69.00
2475.49,-198.00
2476.43,-216.00
2477.38,597.00
2478.32,277.00
2479.27,390.00
2480.21,702.00
2481.16,-128.00
2482.10,283.00
2483.05,238.00
2483.99,-471.00
2484.93,-398.00
2485.88,557.00
2486.82,-372.00
2487.76,770.00
2488.71,167.00
2489.65,1103.00
2490.60,-107.00
2491.54,240.00
2492.48,19.00
2493.42,-70.00
2494.37,236.00
2495.31,-599.00
2496.25,-386.00
2497.20,723.00
2498.14,-233.00
2499.08,-150.00
2500.02,-77.00
2500.96,75.00
2501.91,-116.00
2502.85,46.00
2503.79,110.00
2504.73,589.00
2505.67,-386.00
2506.62,-697.00
2507.56,-72.00
2508.50,468.00
2509.44,254.00
2510.38,359.00
2511.32,-249.00
2512.26,833.00
2513.20,352.00
2514.14,-51.00
2515.08,-409.00
2516.02,337.00
2516.96,374.00
2517.91,-152.00
2518.85,601.00
2519.79,-19.00
2520.73,55.00
2521.66,-314.00
2522.60,-668.00
2523.54,-14.00
2524.48,393.00
2525.42,749.00
2526.36,306.00
2527.30,-329.00
2528.24,-91.00
2529.18,-417.00
2530.12,-281.00
2531.06,218.00
2532.00,472.00
2532.93,679.00
2533.87,-69.00
2534.81,510.00
2535.75,-659.00
2536.69,336.00
2537.63,-696.00
2538.56,441.00
2539.50,673.00
2540.44,157.00
2541.38,517.00
2542.32,657.00
2543.25,275.00
2544.19,533.00
2545.13,533.00
2546.07,472.00
2547.00,207.00
2547.94,202.00
2548.88,357.00
2549.81,808.00
2550.75,728.00
2551.69,350.00
2552.62,354.00
2553.56,-366.00
2554.50,405.00
2555.43,-61.00
2556.37,11.00
2557.30,471.00
2558.24,-504.00
2559.18,-140.00
2560.11,-54.00
2561.05,-159.00
2561.98,-107.00
2562.92,-294.00
2563.86,317.00
2564.79,249.00
2565.73,-556.00
2566.66,341.00
2567.60,42.00
2568.53,205.00
2569.47,259.00
2570.40,-49.00
2571.34,698.00
2572.27,-200.00
2573.21,-192.00
2574.14,-284.00
2575.07,-387.00
2576.01,587.00
2576.94,522.00
2577.88,536.00
2578.81,-317.00
2579.75,333.00
2580.68,888.00
2581.61,4.00
2582.55,-181.00
2583.48,-168.00
2584.42,-249.00
2585.35,690.00
2586.28,-148.00
2587.22,-77.00
2588.15,-36.00
2589.08,677.00
2590.02,585.00
2590.95,-138.00
2591.88,140.00
2592.81,282.00
2593.75,478.00
2594.68,840.00
2595.61,174.00
2596.55,-120.00
2597.48,-214.00
2598.41,210.00
2599.34,-219.00
2600.28,370.00
2601.21,-146.00
2602.14,-171.00
2603.07,-76.00
2604.00,871.00
2604.94,886.00
2605.87,120.00
2606.80,391.00
2607.73,666.00
2608.66,-391.00
2609.59,207.00
2610.53,67.00
2611.46,963.00
2612.39,-166.00
2613.32,-6.00
2614.25,-425.00
2615.18,102.00
2616.11,-34.00
2617.04,255.00
2617.97,-46.00
2618.91,331.00
2619.84,596.00
2620.77,-458.00
2621.70,-4.00
2622.63,529.00
2623.56,148.00
2624.49,-515.00
2625.42,382.00
2626.35,536.00
2627.28,-64.00
2628.21,545.00
2629.14,816.00
2630.07,13.00
2631.00,-216.00
2631.93,722.00
2632.86,264.00
2633.79,142.00
2634.72,-117.00
2635.65,85.00
2636.58,456.00
2637.51,-732.00
2638.44,69.00
2639.37,293.00
2640.30,-52.00
2641.23,-188.00
2642.15,-114.00
2643.08,62.00
2644.01,116.00
2644.94,410.00
2645.87,272.00
2646.80,283.00
2647.73,690.00
2648.66,318.00
2649.59,673.00
2650.51,12.00
2651.44,776.00
2652.37,537.00
2653.30,352.00
2654.23,-70.00
2655.16,349.00
2656.08,667.00
2657.01,306.00
2657.94,146.00
2658.87,118.00
2659.80,731.00
2660.72,-75.00
2661.65,-289.00
2662.58,560.00
2663.51,223.00
2664.44,692.00
2665.36,1377.00
2666.29,259.00
2667.22,438.00
2668.15,432.00
2669.07,633.00
2670.00,-498.00
2670.93,-237.00
2671.86,962.00
2672.78,-40.00
2673.71,184.00
2674.64,0.00
2675.56,0.00
2676.49,0.00
2677.42,0.00
2678.35,0.00
