ENLIGHTEN Version,1.6.8
Measurement ID,20190528-173836-449230-WP-00204
Serial Number,WP-00204
Label,Linseed Oil
Integration Time,20
Timestamp,2019-05-28 17:38:36.449230
Note,
Temperature,-99
CCD C0,640.9744873046875
CCD C1,0.11524999886751175
CCD C2,-5.4810998335597105e-06
CCD C3,-6.335299840287689e-09
CCD Offset,0
CCD Gain,1.9
Laser Wavelength,633.0
Laser Enable,False
Laser Power,100.0
Laser Temperature,-99
Pixel Count,1024

Wavenumber,Processed
196.54,8647.00
199.35,8877.00
202.15,8975.00
204.95,9050.00
207.75,9173.00
210.55,9202.00
213.35,9318.00
216.15,9396.00
218.94,9544.00
221.74,9504.00
224.53,9727.00
227.32,9944.00
230.11,10002.00
232.90,10137.00
235.69,10308.00
238.48,10408.00
241.26,10448.00
244.05,10668.00
246.83,10738.00
249.61,10887.00
252.39,10999.00
255.17,11100.00
257.95,11226.00
260.72,11322.00
263.50,11545.00
266.27,11696.00
269.05,11846.00
271.82,11951.00
274.59,12132.00
277.36,12221.00
280.12,12338.00
282.89,12436.00
285.66,12449.00
288.42,12660.00
291.18,12710.00
293.94,12905.00
296.70,13107.00
299.46,13279.00
302.22,13427.00
304.97,13448.00
307.73,13672.00
310.48,13717.00
313.23,13737.00
315.99,13952.00
318.73,14171.00
321.48,14235.00
324.23,14426.00
326.98,14675.00
329.72,14922.00
332.46,15197.00
335.21,15286.00
337.95,15381.00
340.69,15635.00
343.42,15770.00
346.16,15917.00
348.90,16105.00
351.63,16341.00
354.36,16619.00
357.10,16726.00
359.83,17015.00
362.55,17227.00
365.28,17298.00
368.01,17459.00
370.73,17661.00
373.46,17773.00
376.18,17848.00
378.90,18002.00
381.62,18124.00
384.34,18241.00
387.06,18503.00
389.78,18552.00
392.49,18586.00
395.20,18761.00
397.92,18989.00
400.63,19235.00
403.34,19307.00
406.05,19375.00
408.75,19463.00
411.46,19655.00
414.16,19743.00
416.87,19840.00
419.57,19963.00
422.27,20209.00
424.97,20239.00
427.67,20519.00
430.37,20685.00
433.06,20941.00
435.76,21055.00
438.45,21150.00
441.14,21309.00
443.83,21493.00
446.52,21575.00
449.21,21844.00
451.90,22095.00
454.58,22286.00
457.27,22475.00
459.95,22746.00
462.63,22862.00
465.31,23142.00
467.99,23304.00
470.67,23326.00
473.35,23606.00
476.02,23766.00
478.70,23837.00
481.37,24158.00
484.04,24329.00
486.71,24654.00
489.38,24791.00
492.05,24987.00
494.71,25343.00
497.38,25495.00
500.04,25596.00
502.70,25767.00
505.37,25837.00
508.03,26032.00
510.68,26289.00
513.34,26399.00
516.00,26575.00
518.65,26693.00
521.31,27074.00
523.96,27320.00
526.61,27447.00
529.26,27506.00
531.91,27772.00
534.55,27977.00
537.20,27981.00
539.84,28118.00
542.49,28294.00
545.13,28467.00
547.77,28765.00
550.41,29047.00
553.05,29186.00
555.68,29431.00
558.32,29639.00
560.95,29789.00
563.59,29975.00
566.22,29937.00
568.85,30093.00
571.48,30222.00
574.11,30504.00
576.73,30736.00
579.36,30972.00
581.98,31275.00
584.61,31343.00
587.23,31693.00
589.85,31843.00
592.47,31939.00
595.08,32068.00
597.70,32085.00
600.31,32336.00
602.93,32502.00
605.54,32475.00
608.15,32884.00
610.76,32947.00
613.37,33206.00
615.98,33414.00
618.58,33750.00
621.19,33719.00
623.79,34008.00
626.39,33953.00
629.00,33974.00
631.59,34185.00
634.19,34185.00
636.79,34347.00
639.39,34501.00
641.98,34768.00
644.57,34868.00
647.17,35065.00
649.76,35165.00
652.35,35303.00
654.93,35427.00
657.52,35255.00
660.11,35541.00
662.69,35679.00
665.27,35494.00
667.85,35807.00
670.43,35866.00
673.01,36089.00
675.59,36082.00
678.17,36149.00
680.74,36173.00
683.32,35927.00
685.89,36048.00
688.46,35894.00
691.03,36008.00
693.60,35964.00
696.17,36045.00
698.73,36019.00
701.30,36070.00
703.86,35965.00
706.43,36067.00
708.99,36194.00
711.55,35760.00
714.10,35776.00
716.66,35760.00
719.22,35679.00
721.77,35414.00
724.33,35314.00
726.88,35272.00
729.43,35267.00
731.98,35022.00
734.53,35052.00
737.07,34893.00
739.62,34866.00
742.16,34830.00
744.71,34750.00
747.25,34488.00
749.79,34370.00
752.33,34240.00
754.87,34050.00
757.40,33964.00
759.94,33879.00
762.47,33559.00
765.01,33519.00
767.54,33466.00
770.07,33546.00
772.60,33272.00
775.12,33209.00
777.65,32884.00
780.18,32696.00
782.70,32580.00
785.22,32412.00
787.74,32302.00
790.26,32243.00
792.78,31959.00
795.30,31954.00
797.82,31644.00
800.33,31725.00
802.84,31478.00
805.36,31440.00
807.87,31193.00
810.38,30996.00
812.89,30854.00
815.39,30723.00
817.90,30586.00
820.40,30371.00
822.91,30353.00
825.41,30336.00
827.91,29953.00
830.41,29971.00
832.91,29773.00
835.40,29576.00
837.90,29456.00
840.39,29315.00
842.89,29028.00
845.38,28748.00
847.87,28474.00
850.36,28339.00
852.85,28381.00
855.33,28406.00
857.82,28250.00
860.30,27953.00
862.79,27957.00
865.27,27887.00
867.75,27502.00
870.23,27335.00
872.70,27108.00
875.18,26938.00
877.66,26791.00
880.13,26690.00
882.60,26600.00
885.07,26618.00
887.54,26429.00
890.01,26258.00
892.48,26312.00
894.95,26133.00
897.41,25884.00
899.87,25659.00
902.34,25370.00
904.80,25294.00
907.26,25271.00
909.72,25057.00
912.17,25018.00
914.63,25026.00
917.08,24839.00
919.54,24795.00
921.99,24586.00
924.44,24400.00
926.89,24354.00
929.34,24038.00
931.78,23977.00
934.23,23953.00
936.67,23937.00
939.12,23895.00
941.56,23705.00
944.00,23648.00
946.44,23688.00
948.88,23587.00
951.31,23498.00
953.75,23361.00
956.18,23231.00
958.61,22912.00
961.05,23053.00
963.48,22817.00
965.91,22742.00
968.33,22866.00
970.76,22800.00
973.18,22700.00
975.61,22501.00
978.03,22437.00
980.45,22454.00
982.87,22235.00
985.29,22299.00
987.71,22153.00
990.12,22077.00
992.54,21932.00
994.95,21942.00
997.36,21978.00
999.78,21944.00
1002.19,21729.00
1004.59,21839.00
1007.00,21615.00
1009.41,21543.00
1011.81,21497.00
1014.21,21505.00
1016.62,21497.00
1019.02,21295.00
1021.42,21280.00
1023.82,21124.00
1026.21,21179.00
1028.61,21249.00
1031.00,21159.00
1033.39,21127.00
1035.79,20975.00
1038.18,20847.00
1040.57,20736.00
1042.95,20623.00
1045.34,20511.00
1047.73,20452.00
1050.11,20374.00
1052.49,20385.00
1054.87,20369.00
1057.25,20471.00
1059.63,20209.00
1062.01,20197.00
1064.39,20098.00
1066.76,20159.00
1069.14,19862.00
1071.51,19894.00
1073.88,19671.00
1076.25,19733.00
1078.62,19528.00
1080.99,19600.00
1083.35,19518.00
1085.72,19417.00
1088.08,19248.00
1090.44,19181.00
1092.80,19255.00
1095.16,19066.00
1097.52,19056.00
1099.88,19120.00
1102.24,18862.00
1104.59,18637.00
1106.94,18721.00
1109.30,18632.00
1111.65,18520.00
1114.00,18569.00
1116.34,18506.00
1118.69,18417.00
1121.04,18432.00
1123.38,18390.00
1125.72,18220.00
1128.07,18189.00
1130.41,18285.00
1132.75,18063.00
1135.08,18134.00
1137.42,17967.00
1139.76,17944.00
1142.09,17875.00
1144.42,17933.00
1146.76,17819.00
1149.09,17770.00
1151.41,17837.00
1153.74,17783.00
1156.07,17585.00
1158.39,17561.00
1160.72,17540.00
1163.04,17488.00
1165.36,17397.00
1167.68,17421.00
1170.00,17382.00
1172.32,17381.00
1174.63,17380.00
1176.95,17256.00
1179.26,17341.00
1181.58,17291.00
1183.89,17083.00
1186.20,17012.00
1188.51,16834.00
1190.81,16890.00
1193.12,16925.00
1195.42,16824.00
1197.73,16810.00
1200.03,16830.00
1202.33,16702.00
1204.63,16817.00
1206.93,16687.00
1209.23,16621.00
1211.52,16550.00
1213.82,16492.00
1216.11,16381.00
1218.40,16347.00
1220.69,16419.00
1222.98,16381.00
1225.27,16288.00
1227.56,16265.00
1229.84,16374.00
1232.13,16256.00
1234.41,16172.00
1236.69,16075.00
1238.97,16050.00
1241.25,16021.00
1243.53,15978.00
1245.80,15961.00
1248.08,15870.00
1250.35,15922.00
1252.63,15940.00
1254.90,16021.00
1257.17,15922.00
1259.44,15845.00
1261.71,15902.00
1263.97,15770.00
1266.24,15761.00
1268.50,15653.00
1270.76,15627.00
1273.03,15706.00
1275.29,15609.00
1277.54,15616.00
1279.80,15757.00
1282.06,15601.00
1284.31,15693.00
1286.57,15727.00
1288.82,15618.00
1291.07,15552.00
1293.32,15487.00
1295.57,15499.00
1297.82,15533.00
1300.06,15669.00
1302.31,15485.00
1304.55,15647.00
1306.79,15580.00
1309.03,15641.00
1311.27,15533.00
1313.51,15641.00
1315.75,15506.00
1317.98,15317.00
1320.22,15501.00
1322.45,15419.00
1324.68,15439.00
1326.91,15429.00
1329.14,15525.00
1331.37,15506.00
1333.60,15534.00
1335.82,15465.00
1338.05,15542.00
1340.27,15501.00
1342.49,15356.00
1344.71,15282.00
1346.93,15364.00
1349.15,15270.00
1351.37,15338.00
1353.58,15367.00
1355.80,15305.00
1358.01,15457.00
1360.22,15367.00
1362.43,15343.00
1364.64,15294.00
1366.85,15301.00
1369.06,15301.00
1371.26,15216.00
1373.47,15161.00
1375.67,15303.00
1377.87,15167.00
1380.07,15321.00
1382.27,15196.00
1384.47,15285.00
1386.66,15312.00
1388.86,15200.00
1391.05,15289.00
1393.24,15276.00
1395.44,15245.00
1397.63,15152.00
1399.81,15154.00
1402.00,15152.00
1404.19,15202.00
1406.37,15214.00
1408.56,15302.00
1410.74,15267.00
1412.92,15256.00
1415.10,15219.00
1417.28,15183.00
1419.46,15137.00
1421.63,15110.00
1423.81,15251.00
1425.98,15248.00
1428.15,15184.00
1430.32,15306.00
1432.49,15339.00
1434.66,15352.00
1436.83,15365.00
1438.99,15310.00
1441.16,15379.00
1443.32,15247.00
1445.48,15259.00
1447.64,15160.00
1449.80,15265.00
1451.96,15270.00
1454.12,15326.00
1456.27,15255.00
1458.43,15303.00
1460.58,15253.00
1462.73,15295.00
1464.88,15274.00
1467.03,15180.00
1469.18,15232.00
1471.33,15285.00
1473.47,15232.00
1475.62,15267.00
1477.76,15253.00
1479.90,15318.00
1482.04,15245.00
1484.18,15255.00
1486.32,15264.00
1488.46,15189.00
1490.59,15264.00
1492.73,15266.00
1494.86,15306.00
1496.99,15241.00
1499.12,15263.00
1501.25,15352.00
1503.38,15307.00
1505.50,15131.00
1507.63,15301.00
1509.75,15343.00
1511.88,15185.00
1514.00,15173.00
1516.12,15141.00
1518.24,15139.00
1520.35,15211.00
1522.47,15336.00
1524.59,15143.00
1526.70,15262.00
1528.81,15222.00
1530.92,15291.00
1533.03,15255.00
1535.14,15149.00
1537.25,15179.00
1539.36,15164.00
1541.46,15217.00
1543.56,15311.00
1545.67,15331.00
1547.77,15262.00
1549.87,15276.00
1551.97,15251.00
1554.06,15273.00
1556.16,15316.00
1558.25,15307.00
1560.35,15202.00
1562.44,15245.00
1564.53,15187.00
1566.62,15281.00
1568.71,15359.00
1570.80,15264.00
1572.88,15299.00
1574.97,15232.00
1577.05,15339.00
1579.13,15331.00
1581.21,15262.00
1583.29,15194.00
1585.37,15202.00
1587.45,15272.00
1589.52,15331.00
1591.60,15314.00
1593.67,15289.00
1595.74,15278.00
1597.81,15285.00
1599.88,15291.00
1601.95,15249.00
1604.02,15245.00
1606.08,15356.00
1608.15,15199.00
1610.21,15228.00
1612.27,15179.00
1614.33,15327.00
1616.39,15225.00
1618.45,15302.00
1620.51,15293.00
1622.56,15440.00
1624.62,15301.00
1626.67,15224.00
1628.72,15234.00
1630.77,15367.00
1632.82,15173.00
1634.87,15280.00
1636.92,15322.00
1638.96,15278.00
1641.01,15297.00
1643.05,15382.00
1645.09,15441.00
1647.13,15419.00
1649.17,15396.00
1651.21,15422.00
1653.25,15371.00
1655.28,15397.00
1657.32,15386.00
1659.35,15369.00
1661.38,15291.00
1663.41,15435.00
1665.44,15437.00
1667.47,15499.00
1669.49,15291.00
1671.52,15408.00
1673.54,15366.00
1675.56,15363.00
1677.59,15291.00
1679.61,15405.00
1681.63,15241.00
1683.64,15371.00
1685.66,15397.00
1687.67,15339.00
1689.69,15364.00
1691.70,15405.00
1693.71,15398.00
1695.72,15359.00
1697.73,15242.00
1699.74,15417.00
1701.75,15211.00
1703.75,15333.00
1705.75,15322.00
1707.76,15335.00
1709.76,15333.00
1711.76,15344.00
1713.76,15419.00
1715.75,15483.00
1717.75,15372.00
1719.74,15386.00
1721.74,15299.00
1723.73,15295.00
1725.72,15352.00
1727.71,15322.00
1729.70,15413.00
1731.69,15466.00
1733.67,15333.00
1735.66,15367.00
1737.64,15388.00
1739.62,15318.00
1741.61,15383.00
1743.59,15308.00
1745.56,15313.00
1747.54,15274.00
1749.52,15265.00
1751.49,15248.00
1753.47,15158.00
1755.44,15122.00
1757.41,15190.00
1759.38,15222.00
1761.35,15171.00
1763.31,15253.00
1765.28,15162.00
1767.25,15173.00
1769.21,15133.00
1771.17,15129.00
1773.13,15002.00
1775.09,15026.00
1777.05,15061.00
1779.01,15076.00
1780.96,15139.00
1782.92,15008.00
1784.87,15019.00
1786.82,14981.00
1788.77,15072.00
1790.72,14941.00
1792.67,14955.00
1794.62,14888.00
1796.56,14943.00
1798.51,14892.00
1800.45,14882.00
1802.39,14896.00
1804.34,14875.00
1806.28,14842.00
1808.21,14784.00
1810.15,14783.00
1812.09,14856.00
1814.02,14762.00
1815.95,14731.00
1817.89,14651.00
1819.82,14713.00
1821.75,14651.00
1823.67,14658.00
1825.60,14595.00
1827.53,14528.00
1829.45,14623.00
1831.37,14530.00
1833.30,14637.00
1835.22,14503.00
1837.14,14558.00
1839.06,14515.00
1840.97,14528.00
1842.89,14447.00
1844.80,14469.00
1846.72,14481.00
1848.63,14405.00
1850.54,14329.00
1852.45,14409.00
1854.36,14352.00
1856.26,14420.00
1858.17,14144.00
1860.07,14288.00
1861.98,14367.00
1863.88,14245.00
1865.78,14226.00
1867.68,14188.00
1869.58,14077.00
1871.47,14135.00
1873.37,14104.00
1875.26,14075.00
1877.15,14091.00
1879.05,14062.00
1880.94,14089.00
1882.83,14091.00
1884.71,14063.00
1886.60,14035.00
1888.49,13937.00
1890.37,13973.00
1892.25,13857.00
1894.14,13815.00
1896.02,13723.00
1897.90,13750.00
1899.77,13710.00
1901.65,13755.00
1903.53,13775.00
1905.40,13632.00
1907.27,13716.00
1909.15,13541.00
1911.02,13510.00
1912.89,13493.00
1914.75,13510.00
1916.62,13508.00
1918.49,13407.00
1920.35,13354.00
1922.21,13404.00
1924.07,13313.00
1925.93,13307.00
1927.79,13185.00
1929.65,13155.00
1931.51,13166.00
1933.36,13181.00
1935.22,13157.00
1937.07,13050.00
1938.92,13029.00
1940.77,13119.00
1942.62,12989.00
1944.47,13003.00
1946.32,12999.00
1948.16,12896.00
1950.01,12991.00
1951.85,12906.00
1953.69,12843.00
1955.53,12746.00
1957.37,12719.00
1959.21,12797.00
1961.05,12646.00
1962.88,12574.00
1964.72,12681.00
1966.55,12641.00
1968.38,12531.00
1970.21,12639.00
1972.04,12497.00
1973.87,12400.00
1975.69,12417.00
1977.52,12346.00
1979.34,12341.00
1981.17,12350.00
1982.99,12263.00
1984.81,12276.00
1986.63,12265.00
1988.45,12255.00
1990.26,12215.00
1992.08,12276.00
1993.89,12209.00
1995.71,12150.00
1997.52,12072.00
1999.33,12029.00
2001.14,11977.00
2002.95,11922.00
2004.75,11908.00
2006.56,11901.00
2008.36,11956.00
2010.16,11899.00
2011.97,11876.00
2013.77,11812.00
2015.57,11789.00
2017.36,11707.00
2019.16,11686.00
2020.96,11671.00
2022.75,11622.00
2024.54,11637.00
2026.33,11633.00
2028.13,11568.00
2029.91,11631.00
2031.70,11543.00
2033.49,11492.00
2035.27,11456.00
2037.06,11543.00
2038.84,11387.00
2040.62,11393.00
2042.40,11342.00
2044.18,11323.00
2045.96,11256.00
2047.74,11298.00
2049.51,11282.00
2051.29,11197.00
2053.06,11163.00
2054.83,11196.00
2056.60,11173.00
2058.37,11025.00
2060.14,11055.00
2061.91,11011.00
2063.67,10883.00
2065.44,10944.00
2067.20,10950.00
2068.96,10870.00
2070.72,10867.00
2072.48,10832.00
2074.24,10838.00
2076.00,10763.00
2077.75,10743.00
2079.51,10695.00
2081.26,10686.00
2083.01,10602.00
2084.76,10618.00
2086.51,10573.00
2088.26,10572.00
2090.01,10526.00
2091.75,10543.00
2093.50,10522.00
2095.24,10400.00
2096.98,10440.00
2098.72,10370.00
2100.46,10312.00
2102.20,10349.00
2103.94,10233.00
2105.67,10212.00
2107.41,10217.00
2109.14,10292.00
2110.87,10195.00
2112.60,10153.00
2114.33,10075.00
2116.06,10141.00
2117.79,10090.00
2119.51,10031.00
2121.24,10020.00
2122.96,9987.00
2124.68,10073.00
2126.40,9960.00
2128.12,9871.00
2129.84,9890.00
2131.56,9946.00
2133.27,9844.00
2134.99,9791.00
2136.70,9717.00
2138.41,9830.00
2140.12,9807.00
2141.83,9787.00
2143.54,9732.00
2145.25,9702.00
2146.95,9655.00
2148.66,9626.00
2150.36,9530.00
2152.06,9500.00
2153.76,9561.00
2155.46,9533.00
2157.16,9451.00
2158.86,9459.00
2160.55,9444.00
2162.25,9396.00
2163.94,9367.00
2165.63,9350.00
2167.32,9269.00
2169.01,9249.00
2170.70,9221.00
2172.39,9240.00
2174.08,9163.00
2175.76,9149.00
2177.44,9167.00
2179.13,9093.00
2180.81,9074.00
2182.49,9103.00
2184.16,9019.00
2185.84,9016.00
2187.52,8945.00
2189.19,8962.00
2190.87,8897.00
2192.54,8830.00
2194.21,8873.00
2195.88,8818.00
2197.55,8812.00
2199.21,8724.00
2200.88,8715.00
2202.54,8665.00
2204.21,8599.00
2205.87,8602.00
2207.53,8550.00
2209.19,8589.00
2210.85,8448.00
2212.51,8505.00
2214.16,8494.00
2215.82,8454.00
2217.47,8450.00
2219.12,8327.00
2220.77,8292.00
2222.42,8298.00
2224.07,8264.00
2225.72,8262.00
2227.37,8127.00
2229.01,8191.00
2230.65,8148.00
2232.30,8081.00
2233.94,8079.00
2235.58,8054.00
2237.22,8114.00
2238.85,8024.00
2240.49,7958.00
2242.13,7895.00
2243.76,7896.00
2245.39,7845.00
2247.02,7803.00
2248.65,7809.00
2250.28,7767.00
2251.91,7727.00
2253.54,7754.00
2255.16,7716.00
2256.78,7665.00
2258.41,7595.00
2260.03,7651.00
2261.65,7465.00
2263.27,7520.00
2264.88,7436.00
2266.50,7447.00
2268.12,7478.00
2269.73,7413.00
2271.34,7362.00
2272.95,7373.00
2274.56,7324.00
2276.17,7398.00
2277.78,7320.00
2279.39,7303.00
2280.99,7187.00
2282.60,7209.00
2284.20,7225.00
2285.80,7192.00
2287.40,7126.00
2289.00,7059.00
2290.60,7098.00
2292.19,7029.00
2293.79,7060.00
2295.38,6995.00
2296.98,7010.00
2298.57,6992.00
2300.16,6892.00
2301.75,6907.00
2303.34,6851.00
2304.92,6847.00
2306.51,6845.00
2308.09,6804.00
2309.67,6797.00
2311.26,6785.00
2312.84,6702.00
2314.42,6713.00
2315.99,6705.00
2317.57,6658.00
2319.15,6599.00
2320.72,6677.00
2322.29,6563.00
2323.86,6544.00
2325.44,6557.00
2327.00,6512.00
2328.57,6524.00
2330.14,6460.00
2331.71,6435.00
2333.27,6365.00
2334.83,6403.00
2336.39,6383.00
2337.95,6346.00
2339.51,6303.00
2341.07,6251.00
2342.63,6234.00
2344.19,6213.00
2345.74,6217.00
2347.29,6211.00
2348.84,6144.00
2350.40,6141.00
2351.94,6164.00
2353.49,6139.00
2355.04,6114.00
2356.59,6023.00
2358.13,5992.00
2359.67,6012.00
2361.22,5953.00
2362.76,5903.00
2364.30,5951.00
2365.83,5895.00
2367.37,5922.00
2368.91,5846.00
2370.44,5875.00
2371.98,5847.00
2373.51,5762.00
2375.04,5812.00
2376.57,5747.00
2378.10,5692.00
2379.62,5657.00
2381.15,5664.00
2382.68,5653.00
2384.20,5656.00
2385.72,5604.00
2387.24,5551.00
2388.76,5544.00
2390.28,5525.00
2391.80,5528.00
2393.31,5435.00
2394.83,5501.00
2396.34,5448.00
2397.85,5414.00
2399.37,5421.00
