ENLIGHTEN Version,1.6.8
Measurement ID,20190528-081958-410142-WP-00391
Serial Number,WP-00391
Label,Methanol
Integration Time,1000
Timestamp,2019-05-28 08:19:58.410142
Note,
Temperature,-99
CCD C0,789.0726928710938
CCD C1,0.16069164872169495
CCD C2,5.064120159659069e-06
CCD C3,-4.444800083547307e-09
CCD Offset,0
CCD Gain,1.9
Laser Wavelength,785.0
Laser Enable,False
Laser Power,100.0
Laser Temperature,-99
Pixel Count,2048

Wavenumber,Processed
65.75,433.00
68.33,393.00
70.91,416.00
73.49,414.00
76.07,429.00
78.64,469.00
81.22,446.00
83.79,490.00
86.37,461.00
88.94,545.00
91.51,497.00
94.09,553.00
96.66,588.00
99.23,590.00
101.79,706.00
104.36,617.00
106.93,742.00
109.50,769.00
112.06,705.00
114.63,825.00
117.19,808.00
119.75,877.00
122.31,888.00
124.87,941.00
127.43,993.00
129.99,962.00
132.55,1096.00
135.11,1080.00
137.66,1110.00
140.22,1118.00
142.78,1153.00
145.33,1179.00
147.88,1205.00
150.43,1247.00
152.98,1275.00
155.53,1279.00
158.08,1312.00
160.63,1322.00
163.18,1403.00
165.73,1391.00
168.27,1418.00
170.82,1467.00
173.36,1494.00
175.90,1517.00
178.45,1557.00
180.99,1591.00
183.53,1587.00
186.07,1625.00
188.61,1661.00
191.14,1688.00
193.68,1754.00
196.22,1693.00
198.75,1741.00
201.29,1743.00
203.82,1752.00
206.35,1821.00
208.88,1749.00
211.41,1866.00
213.94,1787.00
216.47,1811.00
219.00,1862.00
221.53,1760.00
224.05,1829.00
226.58,1740.00
229.10,1807.00
231.63,1743.00
234.15,1767.00
236.67,1745.00
239.19,1611.00
241.71,1701.00
244.23,1640.00
246.75,1640.00
249.27,1659.00
251.78,1542.00
254.30,1603.00
256.81,1477.00
259.33,1485.00
261.84,1447.00
264.35,1429.00
266.86,1414.00
269.38,1318.00
271.88,1316.00
274.39,1200.00
276.90,1251.00
279.41,1177.00
281.91,1160.00
284.42,1128.00
286.92,1052.00
289.43,1042.00
291.93,970.00
294.43,976.00
296.93,890.00
299.43,811.00
301.93,855.00
304.43,738.00
306.92,720.00
309.42,680.00
311.91,636.00
314.41,624.00
316.90,541.00
319.39,604.00
321.89,547.00
324.38,505.00
326.87,451.00
329.36,413.00
331.84,421.00
334.33,353.00
336.82,408.00
339.30,310.00
341.79,355.00
344.27,325.00
346.75,295.00
349.24,319.00
351.72,290.00
354.20,315.00
356.68,243.00
359.16,242.00
361.63,268.00
364.11,251.00
366.59,264.00
369.06,239.00
371.53,289.00
374.01,279.00
376.48,247.00
378.95,209.00
381.42,189.00
383.89,209.00
386.36,224.00
388.83,180.00
391.29,245.00
393.76,114.00
396.23,195.00
398.69,196.00
401.15,176.00
403.62,191.00
406.08,133.00
408.54,161.00
411.00,188.00
413.46,222.00
415.91,181.00
418.37,143.00
420.83,217.00
423.28,122.00
425.74,226.00
428.19,180.00
430.64,138.00
433.10,131.00
435.55,158.00
438.00,169.00
440.45,110.00
442.90,183.00
445.34,171.00
447.79,137.00
450.24,190.00
452.68,123.00
455.12,153.00
457.57,212.00
460.01,164.00
462.45,188.00
464.89,161.00
467.33,158.00
469.77,127.00
472.21,201.00
474.64,152.00
477.08,159.00
479.52,160.00
481.95,182.00
484.38,192.00
486.82,176.00
489.25,190.00
491.68,148.00
494.11,169.00
496.54,198.00
498.96,131.00
501.39,172.00
503.82,188.00
506.24,144.00
508.67,188.00
511.09,155.00
513.52,165.00
515.94,129.00
518.36,160.00
520.78,198.00
523.20,178.00
525.62,207.00
528.03,154.00
530.45,174.00
532.87,226.00
535.28,165.00
537.69,218.00
540.11,137.00
542.52,241.00
544.93,226.00
547.34,247.00
549.75,232.00
552.16,182.00
554.57,220.00
556.98,205.00
559.38,239.00
561.79,181.00
564.19,218.00
566.59,232.00
569.00,190.00
571.40,228.00
573.80,266.00
576.20,285.00
578.60,281.00
581.00,266.00
583.39,258.00
585.79,216.00
588.19,278.00
590.58,224.00
592.98,292.00
595.37,229.00
597.76,245.00
600.15,287.00
602.54,220.00
604.93,239.00
607.32,262.00
609.71,305.00
612.09,286.00
614.48,209.00
616.87,325.00
619.25,234.00
621.63,247.00
624.02,291.00
626.40,264.00
628.78,305.00
631.16,218.00
633.54,283.00
635.91,264.00
638.29,283.00
640.67,276.00
643.04,233.00
645.42,348.00
647.79,256.00
650.16,279.00
652.54,291.00
654.91,262.00
657.28,308.00
659.65,258.00
662.02,275.00
664.38,270.00
666.75,277.00
669.12,292.00
671.48,216.00
673.84,289.00
676.21,205.00
678.57,292.00
680.93,275.00
683.29,257.00
685.65,268.00
688.01,230.00
690.37,334.00
692.73,222.00
695.08,262.00
697.44,267.00
699.79,242.00
702.14,281.00
704.50,200.00
706.85,216.00
709.20,216.00
711.55,250.00
713.90,240.00
716.25,163.00
718.60,215.00
720.94,233.00
723.29,237.00
725.63,215.00
727.98,146.00
730.32,224.00
732.66,154.00
735.00,181.00
737.34,224.00
739.68,169.00
742.02,184.00
744.36,185.00
746.70,137.00
749.03,140.00
751.37,177.00
753.70,213.00
756.04,165.00
758.37,245.00
760.70,127.00
763.03,177.00
765.36,131.00
767.69,148.00
770.02,194.00
772.35,149.00
774.67,186.00
777.00,133.00
779.32,177.00
781.65,172.00
783.97,104.00
786.29,171.00
788.61,110.00
790.93,150.00
793.25,125.00
795.57,107.00
797.89,154.00
800.21,125.00
802.52,146.00
804.84,102.00
807.15,102.00
809.47,93.00
811.78,125.00
814.09,74.00
816.40,43.00
818.71,133.00
821.02,72.00
823.33,110.00
825.64,72.00
827.94,53.00
830.25,120.00
832.55,65.00
834.86,110.00
837.16,104.00
839.46,57.00
841.77,53.00
844.07,2.00
846.37,61.00
848.66,21.00
850.96,11.00
853.26,48.00
855.56,50.00
857.85,57.00
860.15,47.00
862.44,88.00
864.73,19.00
867.02,45.00
869.31,55.00
871.60,62.00
873.89,137.00
876.18,20.00
878.47,129.00
880.76,72.00
883.04,51.00
885.33,156.00
887.61,66.00
889.89,148.00
892.18,86.00
894.46,91.00
896.74,177.00
899.02,116.00
901.30,179.00
903.58,81.00
905.85,148.00
908.13,163.00
910.40,127.00
912.68,154.00
914.95,148.00
917.23,228.00
919.50,203.00
921.77,243.00
924.04,221.00
926.31,245.00
928.58,293.00
930.84,240.00
933.11,281.00
935.38,279.00
937.64,315.00
939.91,340.00
942.17,347.00
944.43,418.00
946.69,376.00
948.95,463.00
951.21,446.00
953.47,467.00
955.73,554.00
957.99,527.00
960.25,585.00
962.50,573.00
964.76,630.00
967.01,704.00
969.26,708.00
971.51,807.00
973.77,845.00
976.02,892.00
978.27,996.00
980.51,1100.00
982.76,1206.00
985.01,1270.00
987.26,1475.00
989.50,1632.00
991.75,1782.00
993.99,2026.00
996.23,2244.00
998.47,2839.00
1000.71,3146.00
1002.95,3772.00
1005.19,4562.00
1007.43,5378.00
1009.67,6534.00
1011.91,7643.00
1014.14,9132.00
1016.38,10993.00
1018.61,13084.00
1020.84,15932.00
1023.08,19003.00
1025.31,22415.00
1027.54,25682.00
1029.77,28858.00
1032.00,30901.00
1034.23,32358.00
1036.45,32503.00
1038.68,31448.00
1040.91,28866.00
1043.13,25162.00
1045.35,20960.00
1047.58,16888.00
1049.80,13213.00
1052.02,10446.00
1054.24,8251.00
1056.46,6769.00
1058.68,5644.00
1060.90,4870.00
1063.11,4283.00
1065.33,3883.00
1067.55,3672.00
1069.76,3364.00
1071.97,3231.00
1074.19,3142.00
1076.40,2931.00
1078.61,3028.00
1080.82,2988.00
1083.03,2964.00
1085.24,3073.00
1087.44,3056.00
1089.65,3146.00
1091.86,3152.00
1094.06,3404.00
1096.27,3452.00
1098.47,3622.00
1100.67,3777.00
1102.87,3886.00
1105.07,4044.00
1107.27,4112.00
1109.47,4205.00
1111.67,4142.00
1113.87,4194.00
1116.07,4106.00
1118.26,3965.00
1120.46,3848.00
1122.65,3594.00
1124.84,3476.00
1127.04,3267.00
1129.23,3070.00
1131.42,2974.00
1133.61,2758.00
1135.80,2634.00
1137.98,2557.00
1140.17,2460.00
1142.36,2349.00
1144.54,2331.00
1146.73,2455.00
1148.91,2384.00
1151.09,2411.00
1153.28,2506.00
1155.46,2455.00
1157.64,2476.00
1159.82,2411.00
1162.00,2437.00
1164.17,2246.00
1166.35,2147.00
1168.53,1975.00
1170.70,1813.00
1172.88,1696.00
1175.05,1519.00
1177.22,1475.00
1179.40,1292.00
1181.57,1255.00
1183.74,1188.00
1185.91,1082.00
1188.07,1109.00
1190.24,999.00
1192.41,915.00
1194.57,936.00
1196.74,769.00
1198.90,776.00
1201.07,710.00
1203.23,674.00
1205.39,651.00
1207.55,638.00
1209.71,602.00
1211.87,575.00
1214.03,623.00
1216.19,552.00
1218.34,482.00
1220.50,503.00
1222.66,450.00
1224.81,460.00
1226.96,370.00
1229.11,486.00
1231.27,374.00
1233.42,385.00
1235.57,398.00
1237.72,323.00
1239.86,378.00
1242.01,302.00
1244.16,359.00
1246.30,330.00
1248.45,334.00
1250.59,327.00
1252.74,277.00
1254.88,346.00
1257.02,290.00
1259.16,317.00
1261.30,342.00
1263.44,309.00
1265.58,331.00
1267.71,275.00
1269.85,309.00
1271.99,288.00
1274.12,296.00
1276.25,348.00
1278.39,317.00
1280.52,365.00
1282.65,298.00
1284.78,304.00
1286.91,333.00
1289.04,333.00
1291.17,285.00
1293.30,305.00
1295.42,381.00
1297.55,332.00
1299.67,403.00
1301.80,340.00
1303.92,372.00
1306.04,410.00
1308.16,393.00
1310.28,404.00
1312.40,381.00
1314.52,395.00
1316.64,475.00
1318.76,464.00
1320.87,541.00
1322.99,503.00
1325.10,577.00
1327.22,615.00
1329.33,537.00
1331.44,677.00
1333.55,635.00
1335.66,658.00
1337.77,713.00
1339.88,737.00
1341.99,899.00
1344.10,799.00
1346.20,932.00
1348.31,923.00
1350.41,932.00
1352.52,1062.00
1354.62,962.00
1356.72,1116.00
1358.82,1092.00
1360.92,1160.00
1363.02,1257.00
1365.12,1277.00
1367.22,1365.00
1369.31,1367.00
1371.41,1534.00
1373.51,1504.00
1375.60,1590.00
1377.69,1646.00
1379.79,1724.00
1381.88,1783.00
1383.97,1781.00
1386.06,1934.00
1388.15,1914.00
1390.24,2033.00
1392.33,2185.00
1394.41,2135.00
1396.50,2310.00
1398.59,2310.00
1400.67,2318.00
1402.75,2482.00
1404.84,2491.00
1406.92,2656.00
1409.00,2628.00
1411.08,2819.00
1413.16,2821.00
1415.24,2901.00
1417.32,2920.00
1419.39,2986.00
1421.47,3151.00
1423.54,3200.00
1425.62,3385.00
1427.69,3628.00
1429.77,3829.00
1431.84,4077.00
1433.91,4372.00
1435.98,4784.00
1438.05,5268.00
1440.12,5959.00
1442.19,6935.00
1444.25,8072.00
1446.32,9331.00
1448.38,10573.00
1450.45,11457.00
1452.51,11928.00
1454.58,11844.00
1456.64,11630.00
1458.70,11390.00
1460.76,11290.00
1462.82,11172.00
1464.88,10990.00
1466.94,10870.00
1468.99,10716.00
1471.05,10470.00
1473.10,10244.00
1475.16,9868.00
1477.21,9528.00
1479.27,9217.00
1481.32,8875.00
1483.37,8378.00
1485.42,7935.00
1487.47,7351.00
1489.52,6927.00
1491.57,6576.00
1493.61,6118.00
1495.66,5896.00
1497.71,5452.00
1499.75,5238.00
1501.79,4920.00
1503.84,4550.00
1505.88,4512.00
1507.92,4262.00
1509.96,4200.00
1512.00,3957.00
1514.04,3833.00
1516.08,3632.00
1518.12,3597.00
1520.15,3544.00
1522.19,3315.00
1524.22,3341.00
1526.26,3202.00
1528.29,3169.00
1530.32,3126.00
1532.35,2971.00
1534.38,2912.00
1536.41,2910.00
1538.44,2921.00
1540.47,2833.00
1542.50,2691.00
1544.53,2707.00
1546.55,2618.00
1548.58,2614.00
1550.60,2534.00
1552.62,2512.00
1554.65,2477.00
1556.67,2327.00
1558.69,2335.00
1560.71,2316.00
1562.73,2284.00
1564.75,2092.00
1566.76,2085.00
1568.78,1985.00
1570.80,1982.00
1572.81,1967.00
1574.83,1822.00
1576.84,1735.00
1578.85,1663.00
1580.86,1606.00
1582.88,1585.00
1584.89,1488.00
1586.89,1495.00
1588.90,1418.00
1590.91,1359.00
1592.92,1312.00
1594.92,1150.00
1596.93,1248.00
1598.93,1080.00
1600.94,1096.00
1602.94,1063.00
1604.94,1018.00
1606.94,870.00
1608.94,872.00
1610.94,843.00
1612.94,807.00
1614.94,745.00
1616.94,720.00
1618.93,619.00
1620.93,656.00
1622.92,601.00
1624.92,568.00
1626.91,547.00
1628.90,477.00
1630.89,520.00
1632.89,398.00
1634.88,439.00
1636.86,412.00
1638.85,325.00
1640.84,330.00
1642.83,300.00
1644.81,357.00
1646.80,218.00
1648.78,272.00
1650.76,203.00
1652.75,129.00
1654.73,191.00
1656.71,141.00
1658.69,129.00
1660.67,118.00
1662.65,84.00
1664.62,46.00
1666.60,31.00
1668.58,79.00
1670.55,102.00
1672.53,84.00
1674.50,2.00
1676.47,-23.00
1678.45,4.00
1680.42,0.00
1682.39,20.00
1684.36,-70.00
1686.32,-55.00
1688.29,-57.00
1690.26,-69.00
1692.23,-96.00
1694.19,-114.00
1696.16,-129.00
1698.12,-123.00
1700.08,-84.00
1702.05,-110.00
1704.01,-154.00
1705.97,-115.00
1707.93,-133.00
1709.89,-128.00
1711.84,-157.00
1713.80,-207.00
1715.76,-161.00
1717.71,-228.00
1719.67,-125.00
1721.62,-137.00
1723.58,-160.00
1725.53,-103.00
1727.48,-209.00
1729.43,-145.00
1731.38,-165.00
1733.33,-177.00
1735.28,-186.00
1737.23,-191.00
1739.17,-214.00
1741.12,-226.00
1743.06,-192.00
1745.01,-152.00
1746.95,-220.00
1748.90,-207.00
1750.84,-237.00
1752.78,-217.00
1754.72,-269.00
1756.66,-171.00
1758.60,-244.00
1760.54,-222.00
1762.47,-245.00
1764.41,-238.00
1766.35,-181.00
1768.28,-228.00
1770.21,-275.00
1772.15,-188.00
1774.08,-234.00
1776.01,-202.00
1777.94,-234.00
1779.87,-163.00
1781.80,-222.00
1783.73,-220.00
1785.66,-182.00
1787.58,-232.00
1789.51,-252.00
1791.44,-224.00
1793.36,-273.00
1795.28,-253.00
1797.21,-203.00
1799.13,-226.00
1801.05,-264.00
1802.97,-247.00
1804.89,-192.00
1806.81,-214.00
1808.73,-241.00
1810.64,-283.00
1812.56,-222.00
1814.48,-253.00
1816.39,-233.00
1818.30,-237.00
1820.22,-287.00
1822.13,-163.00
1824.04,-233.00
1825.95,-244.00
1827.86,-235.00
1829.77,-258.00
1831.68,-178.00
1833.59,-230.00
1835.49,-211.00
1837.40,-277.00
1839.31,-233.00
1841.21,-262.00
1843.11,-239.00
1845.02,-207.00
1846.92,-212.00
1848.82,-209.00
1850.72,-260.00
1852.62,-250.00
1854.52,-189.00
1856.42,-291.00
1858.31,-186.00
1860.21,-279.00
1862.11,-288.00
1864.00,-235.00
1865.89,-307.00
1867.79,-232.00
1869.68,-274.00
1871.57,-215.00
1873.46,-237.00
1875.35,-245.00
1877.24,-201.00
1879.13,-262.00
1881.02,-211.00
1882.91,-251.00
1884.79,-200.00
1886.68,-235.00
1888.56,-241.00
1890.45,-195.00
1892.33,-270.00
1894.21,-260.00
1896.09,-230.00
1897.97,-269.00
1899.85,-248.00
1901.73,-254.00
1903.61,-241.00
1905.49,-228.00
1907.36,-226.00
1909.24,-241.00
1911.11,-249.00
1912.99,-250.00
1914.86,-279.00
1916.74,-232.00
1918.61,-222.00
1920.48,-235.00
1922.35,-211.00
1924.22,-222.00
1926.09,-186.00
1927.95,-227.00
1929.82,-192.00
1931.69,-209.00
1933.55,-217.00
1935.42,-186.00
1937.28,-252.00
1939.15,-183.00
1941.01,-224.00
1942.87,-176.00
1944.73,-203.00
1946.59,-200.00
1948.45,-163.00
1950.31,-246.00
1952.17,-245.00
1954.02,-241.00
1955.88,-209.00
1957.73,-188.00
1959.59,-283.00
1961.44,-212.00
1963.30,-223.00
1965.15,-218.00
1967.00,-212.00
1968.85,-219.00
1970.70,-133.00
1972.55,-238.00
1974.40,-169.00
1976.25,-239.00
1978.09,-246.00
1979.94,-224.00
1981.78,-203.00
1983.63,-199.00
1985.47,-219.00
1987.31,-181.00
1989.16,-181.00
1991.00,-213.00
1992.84,-180.00
1994.68,-226.00
1996.52,-190.00
1998.35,-169.00
2000.19,-190.00
2002.03,-150.00
2003.86,-167.00
2005.70,-103.00
2007.53,-167.00
2009.37,-139.00
2011.20,-167.00
2013.03,-175.00
2014.86,-129.00
2016.69,-158.00
2018.52,-159.00
2020.35,-171.00
2022.18,-140.00
2024.01,-91.00
2025.83,-111.00
2027.66,-121.00
2029.48,-128.00
2031.31,-98.00
2033.13,-84.00
2034.95,-112.00
2036.77,-110.00
2038.59,-131.00
2040.42,-49.00
2042.23,-72.00
2044.05,-99.00
2045.87,-101.00
2047.69,-76.00
2049.50,-59.00
2051.32,-84.00
2053.13,-70.00
2054.95,-95.00
2056.76,-82.00
2058.57,-50.00
2060.39,-84.00
2062.20,-110.00
2064.01,-103.00
2065.82,-97.00
2067.62,-103.00
2069.43,-119.00
2071.24,-70.00
2073.05,-108.00
2074.85,-97.00
2076.66,-102.00
2078.46,-116.00
2080.26,-112.00
2082.06,-137.00
2083.87,-111.00
2085.67,-114.00
2087.47,-103.00
2089.27,-124.00
2091.06,-139.00
2092.86,-92.00
2094.66,-116.00
2096.45,-110.00
2098.25,-120.00
2100.04,-95.00
2101.84,-99.00
2103.63,-141.00
2105.42,-76.00
2107.22,-141.00
2109.01,-93.00
2110.80,-103.00
2112.59,-90.00
2114.37,-91.00
2116.16,-84.00
2117.95,-112.00
2119.73,-137.00
2121.52,-120.00
2123.30,-79.00
2125.09,-121.00
2126.87,-83.00
2128.65,-127.00
2130.43,-58.00
2132.22,-107.00
2134.00,-101.00
2135.77,-64.00
2137.55,-121.00
2139.33,-59.00
2141.11,-123.00
2142.88,-64.00
2144.66,-61.00
2146.43,-108.00
2148.21,-64.00
2149.98,-93.00
2151.75,-63.00
2153.52,-76.00
2155.29,-65.00
2157.06,-74.00
2158.83,-125.00
2160.60,-40.00
2162.37,-82.00
2164.14,-61.00
2165.90,-55.00
2167.67,-112.00
2169.43,-18.00
2171.20,-114.00
2172.96,-68.00
2174.72,-73.00
2176.48,-38.00
2178.24,-23.00
2180.00,-100.00
2181.76,-16.00
2183.52,-74.00
2185.28,-33.00
2187.04,-40.00
2188.79,-53.00
2190.55,-44.00
2192.30,-76.00
2194.06,-19.00
2195.81,-46.00
2197.56,-29.00
2199.31,-13.00
2201.06,-45.00
2202.81,-42.00
2204.56,8.00
2206.31,-17.00
2208.06,-14.00
2209.81,-25.00
2211.55,8.00
2213.30,-17.00
2215.04,23.00
2216.79,-5.00
2218.53,0.00
2220.27,41.00
2222.01,-23.00
2223.76,9.00
2225.50,-23.00
2227.23,58.00
2228.97,4.00
2230.71,-40.00
2232.45,31.00
2234.18,4.00
2235.92,4.00
2237.66,-6.00
2239.39,30.00
2241.12,29.00
2242.86,-17.00
2244.59,57.00
2246.32,11.00
2248.05,22.00
2249.78,9.00
2251.51,-5.00
2253.23,34.00
2254.96,-7.00
2256.69,30.00
2258.41,-16.00
2260.14,21.00
2261.86,23.00
2263.59,-38.00
2265.31,22.00
2267.03,28.00
2268.75,5.00
2270.47,-17.00
2272.19,6.00
2273.91,40.00
2275.63,-24.00
2277.35,4.00
2279.06,-6.00
2280.78,40.00
2282.50,40.00
2284.21,34.00
2285.92,38.00
2287.64,20.00
2289.35,34.00
2291.06,17.00
2292.77,8.00
2294.48,51.00
2296.19,32.00
2297.90,46.00
2299.61,49.00
2301.31,60.00
2303.02,49.00
2304.72,42.00
2306.43,57.00
2308.13,67.00
2309.84,81.00
2311.54,51.00
2313.24,40.00
2314.94,32.00
2316.64,8.00
2318.34,28.00
2320.04,-2.00
2321.74,40.00
2323.43,-6.00
2325.13,-49.00
2326.83,-11.00
2328.52,-62.00
2330.21,-27.00
2331.91,-44.00
2333.60,-28.00
2335.29,-40.00
2336.98,-48.00
2338.67,-28.00
2340.36,-38.00
2342.05,-43.00
2343.74,-11.00
2345.43,-19.00
2347.11,-34.00
2348.80,-68.00
2350.49,-47.00
2352.17,-43.00
2353.85,-33.00
2355.54,-32.00
2357.22,-53.00
2358.90,-36.00
2360.58,-55.00
2362.26,-25.00
2363.94,-30.00
2365.62,-36.00
2367.30,-17.00
2368.97,-63.00
2370.65,2.00
2372.32,-53.00
2374.00,-36.00
2375.67,-47.00
2377.35,-46.00
2379.02,-44.00
2380.69,-12.00
2382.36,-36.00
2384.03,-13.00
2385.70,-22.00
2387.37,-15.00
2389.04,-11.00
2390.70,-4.00
2392.37,-48.00
2394.04,-48.00
2395.70,-3.00
2397.37,-7.00
2399.03,15.00
2400.69,-38.00
2402.35,3.00
2404.02,-31.00
2405.68,-11.00
2407.34,-3.00
2409.00,-2.00
2410.65,25.00
2412.31,11.00
2413.97,-9.00
2415.62,4.00
2417.28,-13.00
2418.93,19.00
2420.59,4.00
2422.24,6.00
2423.89,11.00
2425.55,16.00
2427.20,45.00
2428.85,-35.00
2430.50,53.00
2432.14,36.00
2433.79,36.00
2435.44,21.00
2437.09,33.00
2438.73,46.00
2440.38,32.00
2442.02,42.00
2443.66,36.00
2445.31,66.00
2446.95,41.00
2448.59,29.00
2450.23,59.00
2451.87,49.00
2453.51,91.00
2455.15,72.00
2456.79,88.00
2458.42,125.00
2460.06,82.00
2461.70,91.00
2463.33,83.00
2464.96,139.00
2466.60,118.00
2468.23,89.00
2469.86,122.00
2471.49,133.00
2473.12,144.00
2474.75,124.00
2476.38,116.00
2478.01,180.00
2479.64,97.00
2481.26,145.00
2482.89,150.00
2484.51,142.00
2486.14,153.00
2487.76,129.00
2489.39,143.00
2491.01,139.00
2492.63,161.00
2494.25,148.00
2495.87,169.00
2497.49,188.00
2499.11,120.00
2500.73,196.00
2502.34,190.00
2503.96,190.00
2505.57,167.00
2507.19,157.00
2508.80,191.00
2510.42,191.00
2512.03,203.00
2513.64,194.00
2515.25,215.00
2516.86,215.00
2518.47,196.00
2520.08,237.00
2521.69,245.00
2523.30,230.00
2524.91,228.00
2526.51,235.00
2528.12,273.00
2529.72,262.00
2531.33,294.00
2532.93,279.00
2534.53,249.00
2536.13,274.00
2537.73,296.00
2539.33,321.00
2540.93,298.00
2542.53,329.00
2544.13,290.00
2545.73,319.00
2547.32,325.00
2548.92,344.00
2550.52,357.00
2552.11,338.00
2553.70,368.00
2555.30,345.00
2556.89,366.00
2558.48,388.00
2560.07,364.00
2561.66,378.00
2563.25,370.00
2564.84,414.00
2566.43,372.00
2568.02,370.00
2569.60,347.00
2571.19,407.00
2572.77,393.00
2574.36,342.00
2575.94,383.00
2577.52,378.00
2579.11,366.00
2580.69,395.00
2582.27,361.00
2583.85,371.00
2585.43,415.00
2587.01,387.00
2588.58,397.00
2590.16,414.00
2591.74,420.00
2593.31,414.00
2594.89,419.00
2596.46,427.00
2598.04,412.00
2599.61,403.00
2601.18,393.00
2602.75,428.00
2604.32,427.00
2605.89,385.00
2607.46,386.00
2609.03,378.00
2610.60,399.00
2612.16,376.00
2613.73,362.00
2615.30,382.00
2616.86,356.00
2618.43,343.00
2619.99,340.00
2621.55,353.00
2623.11,359.00
2624.67,304.00
2626.24,351.00
2627.80,291.00
2629.35,323.00
2630.91,323.00
2632.47,283.00
2634.03,300.00
2635.58,232.00
2637.14,287.00
2638.69,258.00
2640.25,287.00
2641.80,269.00
2643.35,243.00
2644.91,250.00
2646.46,228.00
2648.01,271.00
2649.56,230.00
2651.11,237.00
2652.66,241.00
2654.20,241.00
2655.75,275.00
2657.30,209.00
2658.84,250.00
2660.39,232.00
2661.93,239.00
2663.47,269.00
2665.02,232.00
2666.56,237.00
2668.10,213.00
2669.64,235.00
2671.18,252.00
2672.72,245.00
2674.26,234.00
2675.79,243.00
2677.33,258.00
2678.87,231.00
2680.40,246.00
2681.94,259.00
2683.47,259.00
2685.01,249.00
2686.54,253.00
2688.07,266.00
2689.60,271.00
2691.13,267.00
2692.66,268.00
2694.19,307.00
2695.72,275.00
2697.25,266.00
2698.77,264.00
2700.30,349.00
2701.83,307.00
2703.35,283.00
2704.87,314.00
2706.40,313.00
2707.92,289.00
2709.44,324.00
2710.96,349.00
2712.48,353.00
2714.00,344.00
2715.52,351.00
2717.04,333.00
2718.56,378.00
2720.08,378.00
2721.59,376.00
2723.11,395.00
2724.62,398.00
2726.14,446.00
2727.65,435.00
2729.16,446.00
2730.68,438.00
2732.19,469.00
2733.70,474.00
2735.21,478.00
2736.72,503.00
2738.23,517.00
2739.73,543.00
2741.24,509.00
2742.75,574.00
2744.25,591.00
2745.76,600.00
2747.26,609.00
2748.77,623.00
2750.27,657.00
2751.77,662.00
2753.27,666.00
2754.77,743.00
2756.27,718.00
2757.77,750.00
2759.27,773.00
2760.77,793.00
2762.27,836.00
2763.76,835.00
2765.26,920.00
2766.76,921.00
2768.25,972.00
2769.74,1042.00
2771.24,1065.00
2772.73,1077.00
2774.22,1160.00
2775.71,1204.00
2777.20,1235.00
2778.69,1325.00
2780.18,1321.00
2781.67,1365.00
2783.16,1467.00
2784.64,1543.00
2786.13,1593.00
2787.61,1689.00
2789.10,1790.00
2790.58,1855.00
2792.07,1927.00
2793.55,2029.00
2795.03,2128.00
2796.51,2261.00
2797.99,2470.00
2799.47,2622.00
2800.95,2854.00
2802.43,3034.00
2803.91,3299.00
2805.38,3482.00
2806.86,3876.00
2808.34,4251.00
2809.81,4648.00
2811.28,5093.00
2812.76,5650.00
2814.23,6339.00
2815.70,7102.00
2817.17,7996.00
2818.64,8978.00
2820.11,10058.00
2821.58,11262.00
2823.05,12767.00
2824.52,14354.00
2825.99,15951.00
2827.45,17708.00
2828.92,19594.00
2830.39,21147.00
2831.85,22554.00
2833.31,23592.00
2834.78,23649.00
2836.24,23202.00
2837.70,22305.00
2839.16,20913.00
2840.62,19163.00
2842.08,17331.00
2843.54,15647.00
2845.00,13832.00
2846.46,12412.00
2847.91,11059.00
2849.37,10035.00
2850.82,9042.00
2852.28,8139.00
2853.73,7451.00
2855.19,6834.00
2856.64,6304.00
2858.09,5902.00
2859.54,5581.00
2860.99,5253.00
2862.44,5006.00
2863.89,4809.00
2865.34,4587.00
2866.79,4516.00
2868.23,4344.00
2869.68,4198.00
2871.13,4131.00
2872.57,4066.00
2874.02,4064.00
2875.46,4047.00
2876.90,4016.00
2878.34,4000.00
2879.79,4065.00
2881.23,4036.00
2882.67,4116.00
2884.11,4207.00
2885.55,4226.00
2886.98,4340.00
2888.42,4421.00
2889.86,4564.00
2891.29,4655.00
2892.73,4812.00
2894.16,4974.00
2895.60,5086.00
2897.03,5269.00
2898.46,5472.00
2899.90,5678.00
2901.33,5847.00
2902.76,6067.00
2904.19,6370.00
2905.62,6650.00
2907.04,6943.00
2908.47,7095.00
2909.90,7342.00
2911.33,7635.00
2912.75,7932.00
2914.18,8163.00
2915.60,8416.00
2917.02,8678.00
2918.45,8902.00
2919.87,9128.00
2921.29,9401.00
2922.71,9812.00
2924.13,9997.00
2925.55,10400.00
2926.97,10837.00
2928.39,11165.00
2929.81,11650.00
2931.22,12158.00
2932.64,12647.00
2934.05,13200.00
2935.47,13745.00
2936.88,14088.00
2938.30,14586.00
2939.71,14990.00
2941.12,15184.00
2942.53,15264.00
2943.94,15398.00
2945.35,15161.00
2946.76,14898.00
2948.17,14473.00
2949.58,13821.00
2950.99,13222.00
2952.39,12450.00
2953.80,11816.00
2955.20,11113.00
2956.61,10420.00
2958.01,9864.00
2959.42,9340.00
2960.82,8695.00
2962.22,8270.00
2963.62,7794.00
2965.02,7425.00
2966.42,7060.00
2967.82,6746.00
2969.22,6464.00
2970.62,6227.00
2972.01,6084.00
2973.41,5793.00
2974.80,5729.00
2976.20,5534.00
2977.59,5502.00
2978.99,5299.00
2980.38,5207.00
2981.77,5124.00
2983.16,4947.00
2984.56,4890.00
2985.95,4744.00
2987.34,4623.00
2988.72,4547.00
2990.11,4387.00
2991.50,4226.00
2992.89,4158.00
2994.27,4032.00
2995.66,3787.00
2997.04,3702.00
2998.43,3514.00
2999.81,3423.00
3001.19,3316.00
3002.58,3123.00
3003.96,3014.00
3005.34,2897.00
3006.72,2755.00
3008.10,2697.00
3009.48,2547.00
3010.85,2487.00
3012.23,2371.00
3013.61,2297.00
3014.98,2198.00
3016.36,2081.00
3017.73,2069.00
3019.11,2006.00
3020.48,1961.00
3021.85,1858.00
3023.23,1835.00
3024.60,1767.00
3025.97,1739.00
3027.34,1675.00
3028.71,1634.00
3030.08,1574.00
3031.44,1542.00
3032.81,1507.00
3034.18,1477.00
3035.54,1454.00
3036.91,1398.00
3038.27,1367.00
3039.64,1343.00
3041.00,1336.00
3042.36,1338.00
3043.72,1257.00
3045.09,1226.00
3046.45,1214.00
3047.81,1211.00
3049.17,1177.00
3050.52,1152.00
3051.88,1122.00
3053.24,1114.00
3054.60,1096.00
3055.95,1076.00
3057.31,1050.00
3058.66,1042.00
3060.01,1029.00
3061.37,1004.00
3062.72,965.00
3064.07,984.00
3065.42,968.00
3066.77,923.00
3068.12,939.00
3069.47,917.00
3070.82,876.00
3072.17,900.00
3073.52,859.00
3074.86,871.00
3076.21,849.00
3077.55,828.00
3078.90,858.00
3080.24,784.00
3081.58,820.00
3082.93,782.00
3084.27,776.00
3085.61,772.00
3086.95,765.00
3088.29,761.00
3089.63,731.00
3090.97,729.00
3092.31,699.00
3093.64,690.00
3094.98,716.00
3096.31,710.00
3097.65,684.00
3098.98,689.00
3100.32,672.00
3101.65,674.00
3102.98,647.00
3104.32,634.00
3105.65,640.00
3106.98,621.00
3108.31,634.00
3109.64,605.00
3110.96,590.00
3112.29,603.00
3113.62,591.00
3114.95,588.00
3116.27,587.00
3117.60,588.00
3118.92,533.00
3120.24,581.00
3121.57,539.00
3122.89,548.00
3124.21,554.00
3125.53,535.00
3126.85,543.00
3128.17,522.00
3129.49,537.00
3130.81,482.00
3132.13,526.00
3133.45,509.00
3134.76,482.00
3136.08,511.00
3137.39,480.00
3138.71,488.00
3140.02,461.00
3141.34,463.00
3142.65,492.00
3143.96,482.00
3145.27,456.00
3146.58,442.00
3147.89,465.00
3149.20,472.00
3150.51,449.00
3151.82,437.00
3153.13,437.00
3154.43,462.00
3155.74,452.00
3157.04,417.00
3158.35,407.00
3159.65,434.00
3160.96,442.00
3162.26,433.00
3163.56,435.00
3164.86,439.00
3166.16,423.00
3167.46,435.00
3168.76,421.00
3170.06,440.00
3171.36,396.00
3172.66,435.00
3173.95,427.00
3175.25,416.00
3176.54,391.00
3177.84,437.00
3179.13,433.00
3180.43,423.00
3181.72,399.00
3183.01,425.00
3184.30,433.00
3185.59,433.00
3186.88,427.00
3188.17,427.00
3189.46,439.00
3190.75,418.00
3192.04,439.00
3193.32,419.00
3194.61,423.00
3195.90,414.00
3197.18,409.00
3198.47,437.00
3199.75,436.00
3201.03,431.00
3202.32,446.00
3203.60,420.00
3204.88,419.00
3206.16,420.00
3207.44,427.00
3208.72,445.00
3210.00,442.00
3211.27,427.00
3212.55,450.00
3213.83,441.00
3215.10,458.00
3216.38,460.00
3217.65,442.00
3218.93,442.00
3220.20,460.00
3221.47,431.00
3222.74,428.00
3224.01,441.00
3225.29,450.00
3226.56,452.00
3227.82,457.00
3229.09,472.00
3230.36,455.00
3231.63,455.00
3232.90,448.00
3234.16,459.00
3235.43,448.00
3236.69,469.00
3237.96,448.00
3239.22,461.00
3240.48,457.00
3241.74,447.00
3243.01,431.00
3244.27,490.00
3245.53,437.00
3246.79,431.00
3248.04,459.00
3249.30,452.00
3250.56,469.00
3251.82,443.00
3253.07,427.00
3254.33,445.00
3255.58,455.00
3256.84,463.00
3258.09,438.00
3259.35,476.00
3260.60,420.00
3261.85,459.00
3263.10,460.00
3264.35,450.00
3265.60,463.00
3266.85,450.00
3268.10,471.00
3269.35,395.00
3270.59,459.00
3271.84,427.00
3273.09,451.00
3274.33,440.00
3275.58,446.00
3276.82,452.00
3278.06,416.00
3279.31,431.00
3280.55,418.00
3281.79,456.00
3283.03,446.00
3284.27,423.00
3285.51,431.00
3286.75,432.00
3287.99,409.00
3289.23,440.00
3290.46,411.00
3291.70,421.00
3292.93,433.00
3294.17,444.00
3295.40,427.00
3296.64,408.00
3297.87,427.00
3299.10,425.00
3300.33,408.00
3301.57,387.00
3302.80,423.00
3304.03,409.00
3305.26,418.00
3306.48,410.00
3307.71,395.00
3308.94,402.00
3310.17,400.00
3311.39,401.00
3312.62,435.00
3313.84,414.00
3315.07,412.00
3316.29,412.00
3317.51,406.00
3318.73,433.00
3319.96,359.00
3321.18,441.00
3322.40,363.00
3323.62,382.00
3324.84,389.00
3326.05,404.00
3327.27,393.00
3328.49,404.00
3329.70,385.00
3330.92,367.00
3332.14,383.00
3333.35,389.00
3334.56,355.00
3335.78,389.00
3336.99,361.00
3338.20,366.00
3339.41,353.00
3340.62,373.00
3341.83,395.00
3343.04,342.00
3344.25,366.00
3345.46,343.00
3346.67,390.00
3347.87,357.00
3349.08,346.00
3350.29,367.00
3351.49,355.00
3352.70,347.00
3353.90,348.00
3355.10,334.00
3356.30,370.00
3357.51,308.00
3358.71,332.00
3359.91,317.00
3361.11,353.00
3362.31,330.00
3363.50,304.00
3364.70,320.00
3365.90,325.00
3367.10,344.00
3368.29,329.00
3369.49,334.00
3370.68,329.00
3371.88,311.00
3373.07,339.00
3374.26,294.00
3375.46,321.00
3376.65,324.00
3377.84,316.00
3379.03,347.00
3380.22,307.00
3381.41,309.00
3382.60,289.00
3383.78,325.00
3384.97,301.00
3386.16,307.00
3387.34,334.00
3388.53,291.00
3389.71,317.00
3390.90,295.00
3392.08,283.00
3393.26,315.00
3394.44,273.00
3395.63,288.00
3396.81,266.00
3397.99,293.00
3399.17,281.00
3400.35,257.00
3401.52,295.00
3402.70,253.00
3403.88,291.00
3405.05,232.00
3406.23,270.00
3407.41,294.00
3408.58,249.00
3409.75,270.00
3410.93,241.00
3412.10,253.00
3413.27,264.00
3414.44,237.00
3415.61,279.00
3416.78,245.00
3417.95,254.00
3419.12,224.00
3420.29,262.00
3421.46,234.00
3422.62,239.00
3423.79,249.00
3424.96,192.00
3426.12,266.00
3427.29,214.00
3428.45,218.00
3429.61,234.00
3430.78,209.00
3431.94,214.00
3433.10,201.00
3434.26,218.00
3435.42,224.00
3436.58,165.00
3437.74,215.00
3438.90,180.00
3440.05,186.00
3441.21,196.00
3442.37,173.00
3443.52,230.00
3444.68,174.00
3445.83,202.00
3446.99,197.00
3448.14,188.00
3449.29,207.00
3450.44,165.00
3451.59,217.00
3452.74,169.00
3453.89,178.00
3455.04,140.00
3456.19,177.00
3457.34,171.00
3458.49,152.00
3459.64,171.00
3460.78,150.00
3461.93,185.00
3463.07,156.00
3464.22,133.00
3465.36,164.00
3466.50,136.00
3467.65,171.00
3468.79,159.00
3469.93,156.00
3471.07,158.00
3472.21,142.00
3473.35,194.00
3474.49,158.00
3475.63,167.00
3476.76,152.00
3477.90,141.00
3479.04,171.00
3480.17,113.00
3481.31,160.00
3482.44,135.00
3483.58,138.00
3484.71,171.00
3485.84,104.00
3486.97,139.00
3488.10,101.00
3489.24,138.00
3490.37,114.00
3491.50,106.00
3492.62,152.00
3493.75,87.00
3494.88,146.00
3496.01,110.00
3497.13,124.00
3498.26,123.00
3499.38,87.00
3500.51,140.00
3501.63,76.00
3502.76,121.00
3503.88,112.00
3505.00,99.00
3506.12,110.00
3507.24,75.00
3508.36,116.00
3509.48,79.00
3510.60,100.00
3511.72,112.00
3512.84,74.00
3513.95,120.00
3515.07,86.00
3516.19,116.00
3517.30,83.00
3518.42,85.00
3519.53,118.00
3520.64,74.00
3521.76,89.00
3522.87,67.00
3523.98,87.00
3525.09,78.00
3526.20,68.00
3527.31,99.00
3528.42,49.00
3529.53,72.00
3530.64,63.00
3531.74,83.00
3532.85,89.00
3533.95,59.00
3535.06,72.00
3536.16,54.00
3537.27,79.00
3538.37,57.00
3539.48,58.00
3540.58,70.00
3541.68,40.00
3542.78,62.00
3543.88,47.00
3544.98,68.00
3546.08,87.00
3547.18,23.00
3548.28,91.00
3549.37,16.00
3550.47,59.00
3551.57,58.00
3552.66,48.00
3553.76,84.00
3554.85,19.00
3555.94,80.00
3557.04,26.00
3558.13,57.00
3559.22,43.00
3560.31,44.00
3561.40,85.00
3562.49,35.00
3563.58,55.00
3564.67,40.00
3565.76,32.00
3566.85,79.00
3567.93,32.00
3569.02,63.00
3570.11,25.00
3571.19,55.00
3572.27,57.00
3573.36,32.00
3574.44,68.00
3575.52,10.00
3576.61,53.00
3577.69,17.00
3578.77,40.00
3579.85,57.00
3580.93,-4.00
3582.01,72.00
3583.09,8.00
3584.16,57.00
3585.24,15.00
3586.32,23.00
3587.39,65.00
3588.47,2.00
3589.54,51.00
3590.62,0.00
3591.69,14.00
3592.76,37.00
3593.83,6.00
3594.91,40.00
3595.98,0.00
3597.05,34.00
3598.12,13.00
3599.19,10.00
3600.26,51.00
3601.32,3.00
3602.39,40.00
3603.46,0.00
3604.52,25.00
3605.59,21.00
3606.65,4.00
3607.72,44.00
3608.78,-15.00
3609.84,23.00
3610.91,10.00
3611.97,10.00
3613.03,34.00
3614.09,-13.00
3615.15,48.00
3616.21,-4.00
3617.27,25.00
3618.33,19.00
3619.39,-17.00
3620.44,57.00
3621.50,4.00
3622.55,21.00
3623.61,4.00
3624.66,7.00
3625.72,48.00
3626.77,-29.00
3627.82,32.00
3628.88,-21.00
3629.93,15.00
3630.98,14.00
3632.03,-8.00
3633.08,43.00
3634.13,-17.00
3635.18,27.00
3636.22,6.00
3637.27,25.00
3638.32,34.00
3639.36,-2.00
3640.41,36.00
3641.45,-27.00
3642.50,24.00
3643.54,26.00
3644.59,-15.00
3645.63,27.00
3646.67,-9.00
3647.71,35.00
3648.75,-5.00
3649.79,21.00
3650.83,28.00
3651.87,0.00
3652.91,21.00
3653.95,-21.00
3654.98,40.00
3656.02,10.00
3657.06,15.00
