ENLIGHTEN Version,1.6.8
Measurement ID,20190528-105753-398254-WP-00357
Serial Number,WP-00357
Label,Methanol
Integration Time,20
Timestamp,2019-05-28 10:57:53.398254
Note,
Temperature,-99
CCD C0,801.1829833984375
CCD C1,0.12474799901247025
CCD C2,-2.2862799596623518e-05
CCD C3,4.907460215974879e-09
CCD Offset,0
CCD Gain,1.9
Laser Wavelength,785.0
Laser Enable,False
Laser Power,100.0
Laser Temperature,-99
Pixel Count,1952

Wavenumber,Processed
257.31,0.00
259.25,0.00
261.19,0.00
263.13,-361.00
265.07,-127.00
267.01,-1.00
268.95,-322.00
270.88,808.00
272.82,-60.00
274.75,479.00
276.68,209.00
278.61,-137.00
280.54,251.00
282.46,40.00
284.39,852.00
286.31,-38.00
288.24,-74.00
290.16,-493.00
292.08,394.00
294.00,-212.00
295.92,44.00
297.83,106.00
299.75,-295.00
301.66,252.00
303.58,-359.00
305.49,152.00
307.40,73.00
309.31,-226.00
311.22,133.00
313.12,32.00
315.03,-47.00
316.93,-286.00
318.83,591.00
320.73,384.00
322.63,-594.00
324.53,-102.00
326.43,170.00
328.33,89.00
330.22,-233.00
332.12,-438.00
334.01,-195.00
335.90,-778.00
337.79,-573.00
339.68,-272.00
341.57,183.00
343.45,-667.00
345.34,128.00
347.22,549.00
349.10,-253.00
350.98,303.00
352.86,-189.00
354.74,-290.00
356.62,154.00
358.50,240.00
360.37,-442.00
362.24,489.00
364.12,138.00
365.99,196.00
367.86,80.00
369.73,93.00
371.59,729.00
373.46,-13.00
375.33,145.00
377.19,700.00
379.05,258.00
380.91,82.00
382.77,221.00
384.63,517.00
386.49,285.00
388.35,1069.00
390.20,247.00
392.06,670.00
393.91,726.00
395.76,518.00
397.61,241.00
399.46,661.00
401.31,245.00
403.15,1565.00
405.00,-10.00
406.84,444.00
408.69,337.00
410.53,1333.00
412.37,704.00
414.21,966.00
416.05,259.00
417.88,1279.00
419.72,411.00
421.55,1009.00
423.39,923.00
425.22,1217.00
427.05,1487.00
428.88,1334.00
430.71,774.00
432.54,936.00
434.36,644.00
436.19,770.00
438.01,1489.00
439.83,962.00
441.65,267.00
443.48,1243.00
445.29,393.00
447.11,1165.00
448.93,704.00
450.74,1060.00
452.56,298.00
454.37,1192.00
456.18,451.00
457.99,1319.00
459.80,487.00
461.61,322.00
463.42,720.00
465.23,1183.00
467.03,560.00
468.83,289.00
470.64,541.00
472.44,721.00
474.24,974.00
476.04,418.00
477.84,688.00
479.63,1804.00
481.43,-382.00
483.22,1252.00
485.02,530.00
486.81,1085.00
488.60,609.00
490.39,763.00
492.18,702.00
493.96,1233.00
495.75,581.00
497.54,1084.00
499.32,886.00
501.10,514.00
502.88,968.00
504.67,667.00
506.45,-78.00
508.22,465.00
510.00,1293.00
511.78,553.00
513.55,1150.00
515.33,1539.00
517.10,459.00
518.87,180.00
520.64,29.00
522.41,586.00
524.18,-594.00
525.94,699.00
527.71,1658.00
529.47,1375.00
531.24,73.00
533.00,741.00
534.76,1145.00
536.52,1003.00
538.28,303.00
540.04,799.00
541.80,676.00
543.55,1009.00
545.31,796.00
547.06,647.00
548.81,1496.00
550.56,993.00
552.31,355.00
554.06,1296.00
555.81,256.00
557.56,1183.00
559.30,40.00
561.05,600.00
562.79,1292.00
564.53,81.00
566.28,1415.00
568.02,-293.00
569.75,305.00
571.49,516.00
573.23,1206.00
574.97,539.00
576.70,1295.00
578.43,105.00
580.17,888.00
581.90,1209.00
583.63,600.00
585.36,529.00
587.09,607.00
588.81,1323.00
590.54,771.00
592.26,500.00
593.99,585.00
595.71,56.00
597.43,1850.00
599.15,1480.00
600.87,1299.00
602.59,1076.00
604.31,532.00
606.02,502.00
607.74,498.00
609.45,592.00
611.17,167.00
612.88,441.00
614.59,794.00
616.30,811.00
618.01,515.00
619.71,965.00
621.42,1552.00
623.13,699.00
624.83,268.00
626.53,1202.00
628.24,1260.00
629.94,-328.00
631.64,1238.00
633.34,1118.00
635.04,1505.00
636.73,1139.00
638.43,720.00
640.12,1952.00
641.82,1076.00
643.51,753.00
645.20,1972.00
646.89,371.00
648.58,520.00
650.27,257.00
651.96,1555.00
653.65,1000.00
655.33,449.00
657.02,791.00
658.70,530.00
660.38,1781.00
662.06,1183.00
663.74,1172.00
665.42,1892.00
667.10,787.00
668.78,59.00
670.45,1074.00
672.13,782.00
673.80,914.00
675.48,1437.00
677.15,936.00
678.82,322.00
680.49,1043.00
682.16,1385.00
683.83,859.00
685.49,528.00
687.16,849.00
688.82,564.00
690.49,1450.00
692.15,1318.00
693.81,1462.00
695.47,941.00
697.13,1263.00
698.79,599.00
700.45,939.00
702.11,-205.00
703.76,1537.00
705.42,1315.00
707.07,835.00
708.72,852.00
710.37,1021.00
712.02,689.00
713.67,470.00
715.32,956.00
716.97,1737.00
718.62,1313.00
720.26,767.00
721.91,1346.00
723.55,181.00
725.19,425.00
726.84,1567.00
728.48,1443.00
730.12,1086.00
731.75,595.00
733.39,1152.00
735.03,385.00
736.66,1068.00
738.30,1237.00
739.93,1004.00
741.57,1088.00
743.20,81.00
744.83,-76.00
746.46,903.00
748.09,716.00
749.71,406.00
751.34,839.00
752.97,466.00
754.59,763.00
756.22,1223.00
757.84,147.00
759.46,567.00
761.08,864.00
762.70,896.00
764.32,366.00
765.94,-27.00
767.56,467.00
769.17,399.00
770.79,156.00
772.40,-450.00
774.01,62.00
775.63,191.00
777.24,-350.00
778.85,908.00
780.46,841.00
782.07,1091.00
783.67,156.00
785.28,1696.00
786.88,366.00
788.49,1098.00
790.09,-221.00
791.70,486.00
793.30,764.00
794.90,1381.00
796.50,200.00
798.10,136.00
799.69,1660.00
801.29,613.00
802.89,333.00
804.48,490.00
806.08,127.00
807.67,611.00
809.26,664.00
810.85,1108.00
812.44,647.00
814.03,245.00
815.62,717.00
817.21,537.00
818.79,257.00
820.38,1119.00
821.96,330.00
823.55,1.00
825.13,937.00
826.71,581.00
828.29,395.00
829.87,1230.00
831.45,833.00
833.03,568.00
834.61,1082.00
836.18,467.00
837.76,597.00
839.33,412.00
840.91,998.00
842.48,999.00
844.05,332.00
845.62,268.00
847.19,247.00
848.76,1371.00
850.33,975.00
851.90,1084.00
853.46,236.00
855.03,675.00
856.59,797.00
858.15,-461.00
859.72,136.00
861.28,543.00
862.84,225.00
864.40,1142.00
865.96,285.00
867.52,1086.00
869.07,1134.00
870.63,539.00
872.18,1050.00
873.74,974.00
875.29,1884.00
876.84,679.00
878.40,346.00
879.95,738.00
881.50,863.00
883.04,1586.00
884.59,672.00
886.14,1421.00
887.69,729.00
889.23,636.00
890.78,442.00
892.32,682.00
893.86,1482.00
895.40,778.00
896.94,1207.00
898.48,1243.00
900.02,535.00
901.56,1173.00
903.10,787.00
904.63,1292.00
906.17,1118.00
907.70,840.00
909.24,629.00
910.77,1126.00
912.30,549.00
913.83,568.00
915.36,927.00
916.89,494.00
918.42,741.00
919.95,1854.00
921.48,615.00
923.00,773.00
924.53,1334.00
926.05,566.00
927.57,1075.00
929.10,1037.00
930.62,1343.00
932.14,979.00
933.66,1247.00
935.18,1271.00
936.70,1206.00
938.21,1729.00
939.73,1182.00
941.24,2287.00
942.76,1536.00
944.27,1614.00
945.79,1749.00
947.30,1614.00
948.81,1854.00
950.32,2027.00
951.83,997.00
953.34,1657.00
954.84,683.00
956.35,2253.00
957.86,1532.00
959.36,1320.00
960.87,2218.00
962.37,1934.00
963.87,2942.00
965.37,1988.00
966.88,1652.00
968.38,2621.00
969.87,2257.00
971.37,1407.00
972.87,2351.00
974.37,3106.00
975.86,2039.00
977.36,2840.00
978.85,2244.00
980.35,2884.00
981.84,2636.00
983.33,2518.00
984.82,3706.00
986.31,2871.00
987.80,3391.00
989.29,3496.00
990.77,3844.00
992.26,3827.00
993.75,4244.00
995.23,4242.00
996.72,6006.00
998.20,6892.00
999.68,6683.00
1001.16,7349.00
1002.64,8829.00
1004.12,9280.00
1005.60,9646.00
1007.08,10800.00
1008.56,11708.00
1010.04,14059.00
1011.51,15832.00
1012.99,17304.00
1014.46,20999.00
1015.93,21696.00
1017.41,22882.00
1018.88,28332.00
1020.35,30488.00
1021.82,35340.00
1023.29,35720.00
1024.76,39718.00
1026.23,42640.00
1027.69,47218.00
1029.16,48670.00
1030.62,52875.00
1032.09,51527.00
1033.55,51596.00
1035.02,54620.00
1036.48,55664.00
1037.94,51014.00
1039.40,50584.00
1040.86,45799.00
1042.32,45692.00
1043.78,40580.00
1045.23,37296.00
1046.69,31455.00
1048.15,31107.00
1049.60,28118.00
1051.05,24162.00
1052.51,22118.00
1053.96,18877.00
1055.41,16652.00
1056.86,14581.00
1058.31,12713.00
1059.76,11424.00
1061.21,9460.00
1062.66,8929.00
1064.10,8074.00
1065.55,7131.00
1067.00,6944.00
1068.44,7486.00
1069.88,6638.00
1071.33,6725.00
1072.77,5574.00
1074.21,5454.00
1075.65,5538.00
1077.09,5851.00
1078.53,5836.00
1079.97,6392.00
1081.41,5988.00
1082.84,5853.00
1084.28,5172.00
1085.71,5584.00
1087.15,4757.00
1088.58,5562.00
1090.02,5831.00
1091.45,5434.00
1092.88,5821.00
1094.31,5835.00
1095.74,6277.00
1097.17,6643.00
1098.60,7236.00
1100.02,6515.00
1101.45,6542.00
1102.88,7224.00
1104.30,6662.00
1105.73,6948.00
1107.15,7547.00
1108.57,6940.00
1109.99,7076.00
1111.42,7745.00
1112.84,6955.00
1114.26,7586.00
1115.68,6796.00
1117.09,7953.00
1118.51,7348.00
1119.93,6719.00
1121.34,7261.00
1122.76,6624.00
1124.17,6951.00
1125.59,4988.00
1127.00,5792.00
1128.41,5632.00
1129.82,5751.00
1131.24,6044.00
1132.65,6056.00
1134.05,6289.00
1135.46,4919.00
1136.87,5555.00
1138.28,5781.00
1139.68,4327.00
1141.09,4291.00
1142.50,5380.00
1143.90,4776.00
1145.30,5314.00
1146.71,4833.00
1148.11,5364.00
1149.51,4923.00
1150.91,5182.00
1152.31,5483.00
1153.71,5391.00
1155.11,5002.00
1156.50,4708.00
1157.90,4778.00
1159.30,5570.00
1160.69,4250.00
1162.08,5408.00
1163.48,3400.00
1164.87,4913.00
1166.26,4385.00
1167.66,4422.00
1169.05,4594.00
1170.44,3490.00
1171.83,3227.00
1173.21,3479.00
1174.60,3297.00
1175.99,4235.00
1177.38,2942.00
1178.76,2767.00
1180.15,3171.00
1181.53,3719.00
1182.92,1939.00
1184.30,2780.00
1185.68,1784.00
1187.06,3183.00
1188.44,2557.00
1189.82,2847.00
1191.20,2973.00
1192.58,2368.00
1193.96,1690.00
1195.34,1629.00
1196.71,1521.00
1198.09,1047.00
1199.46,1817.00
1200.84,2447.00
1202.21,1916.00
1203.58,3227.00
1204.96,1618.00
1206.33,2631.00
1207.70,1512.00
1209.07,2067.00
1210.44,1846.00
1211.81,1988.00
1213.17,1694.00
1214.54,1024.00
1215.91,2055.00
1217.27,667.00
1218.64,64.00
1220.00,1196.00
1221.37,1854.00
1222.73,1598.00
1224.09,819.00
1225.45,1127.00
1226.82,928.00
1228.18,1248.00
1229.54,1574.00
1230.89,1164.00
1232.25,1308.00
1233.61,1236.00
1234.97,1405.00
1236.32,1089.00
1237.68,884.00
1239.03,645.00
1240.39,926.00
1241.74,543.00
1243.09,1805.00
1244.45,1757.00
1245.80,204.00
1247.15,866.00
1248.50,2025.00
1249.85,-61.00
1251.20,1085.00
1252.54,604.00
1253.89,243.00
1255.24,1521.00
1256.58,690.00
1257.93,1684.00
1259.27,770.00
1260.62,455.00
1261.96,1759.00
1263.30,935.00
1264.64,1163.00
1265.98,1030.00
1267.33,396.00
1268.67,1039.00
1270.00,1169.00
1271.34,396.00
1272.68,1346.00
1274.02,1048.00
1275.35,1196.00
1276.69,761.00
1278.03,1076.00
1279.36,685.00
1280.69,702.00
1282.03,951.00
1283.36,1087.00
1284.69,1193.00
1286.02,6.00
1287.35,1716.00
1288.68,373.00
1290.01,732.00
1291.34,1054.00
1292.67,1475.00
1294.00,997.00
1295.32,867.00
1296.65,555.00
1297.97,514.00
1299.30,1731.00
1300.62,1227.00
1301.94,732.00
1303.27,1004.00
1304.59,192.00
1305.91,979.00
1307.23,767.00
1308.55,1041.00
1309.87,1762.00
1311.19,1201.00
1312.51,853.00
1313.82,8.00
1315.14,971.00
1316.46,699.00
1317.77,769.00
1319.09,1755.00
1320.40,955.00
1321.72,1442.00
1323.03,1117.00
1324.34,1783.00
1325.65,1131.00
1326.96,1108.00
1328.27,1842.00
1329.58,2195.00
1330.89,1980.00
1332.20,578.00
1333.51,3185.00
1334.82,1636.00
1336.12,1451.00
1337.43,1385.00
1338.73,703.00
1340.04,846.00
1341.34,1553.00
1342.65,1582.00
1343.95,1934.00
1345.25,1277.00
1346.55,2312.00
1347.85,866.00
1349.15,1424.00
1350.45,2630.00
1351.75,1839.00
1353.05,821.00
1354.35,1640.00
1355.65,1867.00
1356.94,2087.00
1358.24,1646.00
1359.53,1261.00
1360.83,2602.00
1362.12,2537.00
1363.42,2296.00
1364.71,3021.00
1366.00,1747.00
1367.29,2300.00
1368.58,2816.00
1369.87,3103.00
1371.16,2609.00
1372.45,2457.00
1373.74,2419.00
1375.03,2413.00
1376.32,2117.00
1377.60,2716.00
1378.89,2017.00
1380.17,3519.00
1381.46,2153.00
1382.74,3452.00
1384.03,4592.00
1385.31,2773.00
1386.59,2878.00
1387.87,3219.00
1389.15,3038.00
1390.43,4943.00
1391.71,4174.00
1392.99,3421.00
1394.27,3939.00
1395.55,4728.00
1396.83,3955.00
1398.11,3733.00
1399.38,4325.00
1400.66,3581.00
1401.93,3815.00
1403.21,3946.00
1404.48,4709.00
1405.75,4067.00
1407.03,4046.00
1408.30,4693.00
1409.57,4195.00
1410.84,5621.00
1412.11,4348.00
1413.38,4041.00
1414.65,5148.00
1415.92,4871.00
1417.19,4993.00
1418.46,4142.00
1419.72,5085.00
1420.99,5427.00
1422.25,7176.00
1423.52,6566.00
1424.78,6309.00
1426.05,5772.00
1427.31,6672.00
1428.57,7833.00
1429.84,7367.00
1431.10,7592.00
1432.36,8574.00
1433.62,9433.00
1434.88,9370.00
1436.14,9065.00
1437.40,11523.00
1438.65,11086.00
1439.91,12138.00
1441.17,14111.00
1442.43,16210.00
1443.68,14267.00
1444.94,15606.00
1446.19,16781.00
1447.44,17721.00
1448.70,16935.00
1449.95,17110.00
1451.20,19095.00
1452.46,19546.00
1453.71,19658.00
1454.96,18953.00
1456.21,18825.00
1457.46,21750.00
1458.71,21805.00
1459.95,20382.00
1461.20,19141.00
1462.45,21066.00
1463.70,22194.00
1464.94,22531.00
1466.19,19694.00
1467.43,20386.00
1468.68,19396.00
1469.92,20807.00
1471.16,19708.00
1472.41,19312.00
1473.65,20689.00
1474.89,19081.00
1476.13,17097.00
1477.37,18189.00
1478.61,17513.00
1479.85,17163.00
1481.09,17056.00
1482.33,15914.00
1483.57,14850.00
1484.80,15726.00
1486.04,15880.00
1487.28,14519.00
1488.51,13799.00
1489.75,13969.00
1490.98,14976.00
1492.21,12316.00
1493.45,13229.00
1494.68,11829.00
1495.91,10775.00
1497.14,11170.00
1498.37,10993.00
1499.61,10262.00
1500.84,10262.00
1502.06,9128.00
1503.29,9967.00
1504.52,10596.00
1505.75,9512.00
1506.98,8819.00
1508.20,7762.00
1509.43,7479.00
1510.66,7785.00
1511.88,6692.00
1513.11,7600.00
1514.33,8524.00
1515.55,6975.00
1516.78,8154.00
1518.00,6142.00
1519.22,6695.00
1520.44,7078.00
1521.66,6287.00
1522.88,5052.00
1524.10,5902.00
1525.32,6081.00
1526.54,6875.00
1527.76,5371.00
1528.98,5879.00
1530.19,5358.00
1531.41,5827.00
1532.63,5277.00
1533.84,5449.00
1535.06,6080.00
1536.27,5909.00
1537.48,5384.00
1538.70,4965.00
1539.91,4704.00
1541.12,5147.00
1542.33,4623.00
1543.55,4224.00
1544.76,5323.00
1545.97,5111.00
1547.18,5097.00
1548.39,3870.00
1549.59,4743.00
1550.80,3559.00
1552.01,4732.00
1553.22,4153.00
1554.42,4575.00
1555.63,4485.00
1556.84,3872.00
1558.04,5459.00
1559.24,4215.00
1560.45,4121.00
1561.65,2866.00
1562.86,3935.00
1564.06,3464.00
1565.26,3255.00
1566.46,3242.00
1567.66,2643.00
1568.86,3564.00
1570.06,3123.00
1571.26,3310.00
1572.46,2869.00
1573.66,2505.00
1574.86,2697.00
1576.05,3172.00
1577.25,2830.00
1578.45,3016.00
1579.64,3053.00
1580.84,2689.00
1582.03,2542.00
1583.23,2339.00
1584.42,3350.00
1585.61,2811.00
1586.81,2808.00
1588.00,2151.00
1589.19,2673.00
1590.38,2339.00
1591.57,3888.00
1592.76,1772.00
1593.95,1988.00
1595.14,1749.00
1596.33,2465.00
1597.52,1766.00
1598.71,2866.00
1599.90,2118.00
1601.08,1964.00
1602.27,1272.00
1603.45,1611.00
1604.64,1017.00
1605.83,1618.00
1607.01,1895.00
1608.19,1943.00
1609.38,1119.00
1610.56,1730.00
1611.74,1863.00
1612.92,1174.00
1614.11,1144.00
1615.29,923.00
1616.47,1826.00
1617.65,986.00
1618.83,1450.00
1620.01,961.00
1621.18,972.00
1622.36,1314.00
1623.54,1603.00
1624.72,1113.00
1625.89,842.00
1627.07,311.00
1628.25,306.00
1629.42,148.00
1630.60,355.00
1631.77,123.00
1632.94,-13.00
1634.12,543.00
1635.29,1475.00
1636.46,1784.00
1637.63,1008.00
1638.80,1213.00
1639.98,878.00
1641.15,1532.00
1642.32,881.00
1643.49,1308.00
1644.65,104.00
1645.82,1295.00
1646.99,1091.00
1648.16,611.00
1649.33,316.00
1650.49,1271.00
1651.66,-243.00
1652.82,985.00
1653.99,168.00
1655.15,609.00
1656.32,922.00
1657.48,380.00
1658.65,117.00
1659.81,1485.00
1660.97,-418.00
1662.13,91.00
1663.29,-192.00
1664.45,504.00
1665.62,1105.00
1666.78,142.00
1667.94,1041.00
1669.09,425.00
1670.25,916.00
1671.41,-391.00
1672.57,555.00
1673.73,821.00
1674.88,808.00
1676.04,542.00
1677.20,112.00
1678.35,-155.00
1679.51,-24.00
1680.66,992.00
1681.82,-29.00
1682.97,-542.00
1684.12,-461.00
1685.27,1249.00
1686.43,580.00
1687.58,1173.00
1688.73,901.00
1689.88,-1208.00
1691.03,391.00
1692.18,-227.00
1693.33,-192.00
1694.48,160.00
1695.63,-897.00
1696.78,572.00
1697.93,-160.00
1699.07,-153.00
1700.22,-5.00
1701.37,298.00
1702.51,-703.00
1703.66,-165.00
1704.80,-66.00
1705.95,606.00
1707.09,-337.00
1708.24,-12.00
1709.38,1034.00
1710.52,538.00
1711.67,-545.00
1712.81,1061.00
1713.95,640.00
1715.09,405.00
1716.23,104.00
1717.37,-270.00
1718.51,-49.00
1719.65,916.00
1720.79,376.00
1721.93,27.00
1723.07,78.00
1724.20,774.00
1725.34,238.00
1726.48,-441.00
1727.62,-341.00
1728.75,325.00
1729.89,131.00
1731.02,47.00
1732.16,364.00
1733.29,92.00
1734.43,-147.00
1735.56,970.00
1736.69,-114.00
1737.82,627.00
1738.96,76.00
1740.09,1061.00
1741.22,-73.00
1742.35,524.00
1743.48,134.00
1744.61,-224.00
1745.74,-466.00
1746.87,-219.00
1748.00,-202.00
1749.13,-208.00
1750.25,307.00
1751.38,510.00
1752.51,-220.00
1753.64,549.00
1754.76,-100.00
1755.89,-82.00
1757.01,-572.00
1758.14,476.00
1759.26,-687.00
1760.39,-592.00
1761.51,13.00
1762.63,-353.00
1763.76,723.00
1764.88,-32.00
1766.00,-389.00
1767.12,-235.00
1768.24,352.00
1769.37,162.00
1770.49,-204.00
1771.61,110.00
1772.73,593.00
1773.85,-455.00
1774.96,235.00
1776.08,140.00
1777.20,-847.00
1778.32,-185.00
1779.44,-234.00
1780.55,-699.00
1781.67,479.00
1782.78,625.00
1783.90,-179.00
1785.01,-82.00
1786.13,89.00
1787.24,-109.00
1788.36,-90.00
1789.47,-79.00
1790.58,-259.00
1791.70,511.00
1792.81,-147.00
1793.92,97.00
1795.03,-240.00
1796.14,389.00
1797.26,-473.00
1798.37,242.00
1799.48,-134.00
1800.58,312.00
1801.69,-134.00
1802.80,-380.00
1803.91,107.00
1805.02,-390.00
1806.13,-617.00
1807.23,-376.00
1808.34,-179.00
1809.45,-541.00
1810.55,-94.00
1811.66,-529.00
1812.76,615.00
1813.87,-217.00
1814.97,-31.00
1816.08,-316.00
1817.18,-202.00
1818.28,-43.00
1819.39,363.00
1820.49,212.00
1821.59,32.00
1822.69,391.00
1823.79,-167.00
1824.90,-515.00
1826.00,-141.00
1827.10,-423.00
1828.20,-310.00
1829.30,-180.00
1830.39,136.00
1831.49,-564.00
1832.59,-372.00
1833.69,278.00
1834.79,-260.00
1835.88,1075.00
1836.98,290.00
1838.08,443.00
1839.17,508.00
1840.27,-341.00
1841.36,-314.00
1842.46,450.00
1843.55,-226.00
1844.65,418.00
1845.74,-192.00
1846.83,-72.00
1847.93,381.00
1849.02,237.00
1850.11,-156.00
1851.20,362.00
1852.30,865.00
1853.39,944.00
1854.48,565.00
1855.57,-243.00
1856.66,-369.00
1857.75,241.00
1858.84,-261.00
1859.93,-59.00
1861.01,228.00
1862.10,-39.00
1863.19,-629.00
1864.28,-283.00
1865.37,-906.00
1866.45,-233.00
1867.54,304.00
1868.62,-277.00
1869.71,345.00
1870.79,-113.00
1871.88,652.00
1872.96,-637.00
1874.05,440.00
1875.13,-163.00
1876.22,376.00
1877.30,334.00
1878.38,351.00
1879.46,402.00
1880.55,-455.00
1881.63,421.00
1882.71,213.00
1883.79,-631.00
1884.87,-659.00
1885.95,-144.00
1887.03,-223.00
1888.11,-103.00
1889.19,-962.00
1890.27,-135.00
1891.35,20.00
1892.42,-599.00
1893.50,139.00
1894.58,-233.00
1895.66,-358.00
1896.73,-250.00
1897.81,178.00
1898.89,-22.00
1899.96,-362.00
1901.04,-184.00
1902.11,217.00
1903.19,96.00
1904.26,115.00
1905.33,34.00
1906.41,-243.00
1907.48,-315.00
1908.55,-677.00
1909.63,-128.00
1910.70,-586.00
1911.77,-740.00
1912.84,-219.00
1913.91,-534.00
1914.98,-101.00
1916.05,194.00
1917.12,-838.00
1918.19,-22.00
1919.26,74.00
1920.33,-392.00
1921.40,811.00
1922.47,-44.00
1923.54,-449.00
1924.60,844.00
1925.67,34.00
1926.74,220.00
1927.80,-12.00
1928.87,-194.00
1929.94,-34.00
1931.00,-314.00
1932.07,133.00
1933.13,-1472.00
1934.20,-66.00
1935.26,140.00
1936.33,-902.00
1937.39,-9.00
1938.45,365.00
1939.52,-385.00
1940.58,195.00
1941.64,362.00
1942.70,-23.00
1943.76,250.00
1944.83,100.00
1945.89,254.00
1946.95,328.00
1948.01,287.00
1949.07,-204.00
1950.13,78.00
1951.19,-88.00
1952.25,-68.00
1953.30,-524.00
1954.36,40.00
1955.42,-193.00
1956.48,115.00
1957.54,-419.00
1958.59,63.00
1959.65,72.00
1960.71,159.00
1961.76,-440.00
1962.82,8.00
1963.87,230.00
1964.93,401.00
1965.98,-483.00
1967.04,-510.00
1968.09,279.00
1969.15,110.00
1970.20,-623.00
1971.25,462.00
1972.31,-367.00
1973.36,186.00
1974.41,109.00
1975.46,-774.00
1976.51,-359.00
1977.57,-394.00
1978.62,51.00
1979.67,-359.00
1980.72,-403.00
1981.77,170.00
1982.82,-62.00
1983.87,-631.00
1984.92,-393.00
1985.96,-394.00
1987.01,107.00
1988.06,184.00
1989.11,-3.00
1990.16,-149.00
1991.20,179.00
1992.25,-47.00
1993.30,-172.00
1994.34,41.00
1995.39,-198.00
1996.44,-805.00
1997.48,-188.00
1998.53,-316.00
1999.57,91.00
2000.62,-252.00
2001.66,-495.00
2002.70,184.00
2003.75,-152.00
2004.79,490.00
2005.83,62.00
2006.88,279.00
2007.92,57.00
2008.96,268.00
2010.00,35.00
2011.04,-12.00
2012.08,-10.00
2013.13,-334.00
2014.17,-527.00
2015.21,-197.00
2016.25,605.00
2017.29,-104.00
2018.33,150.00
2019.36,8.00
2020.40,205.00
2021.44,235.00
2022.48,-394.00
2023.52,-145.00
2024.56,-177.00
2025.59,-158.00
2026.63,-230.00
2027.67,-416.00
2028.70,251.00
2029.74,-917.00
2030.78,305.00
2031.81,-192.00
2032.85,402.00
2033.88,708.00
2034.92,91.00
2035.95,351.00
2036.98,-58.00
2038.02,36.00
2039.05,-1.00
2040.08,190.00
2041.12,688.00
2042.15,-38.00
2043.18,-290.00
2044.21,12.00
2045.25,2.00
2046.28,-384.00
2047.31,-690.00
2048.34,199.00
2049.37,751.00
2050.40,190.00
2051.43,220.00
2052.46,-102.00
2053.49,-36.00
2054.52,-183.00
2055.55,-151.00
2056.58,-562.00
2057.61,430.00
2058.63,189.00
2059.66,-19.00
2060.69,301.00
2061.72,374.00
2062.74,40.00
2063.77,108.00
2064.80,518.00
2065.82,740.00
2066.85,153.00
2067.87,135.00
2068.90,-341.00
2069.92,912.00
2070.95,-94.00
2071.97,101.00
2073.00,245.00
2074.02,82.00
2075.05,567.00
2076.07,17.00
2077.09,176.00
2078.12,-147.00
2079.14,246.00
2080.16,-21.00
2081.18,-446.00
2082.20,229.00
2083.23,472.00
2084.25,-291.00
2085.27,284.00
2086.29,-151.00
2087.31,447.00
2088.33,40.00
2089.35,274.00
2090.37,34.00
2091.39,-206.00
2092.41,-418.00
2093.43,-239.00
2094.44,-609.00
2095.46,350.00
2096.48,662.00
2097.50,6.00
2098.52,-138.00
2099.53,-34.00
2100.55,-125.00
2101.57,-478.00
2102.58,57.00
2103.60,-694.00
2104.62,-295.00
2105.63,-75.00
2106.65,404.00
2107.66,486.00
2108.68,-93.00
2109.69,-236.00
2110.71,-657.00
2111.72,220.00
2112.73,-16.00
2113.75,-622.00
2114.76,-449.00
2115.77,492.00
2116.79,485.00
2117.80,265.00
2118.81,-217.00
2119.82,350.00
2120.84,93.00
2121.85,-44.00
2122.86,-140.00
2123.87,335.00
2124.88,244.00
2125.89,-375.00
2126.90,328.00
2127.91,194.00
2128.92,462.00
2129.93,63.00
2130.94,-289.00
2131.95,-44.00
2132.96,51.00
2133.97,-176.00
2134.97,-329.00
2135.98,-398.00
2136.99,-439.00
2138.00,258.00
2139.01,-179.00
2140.01,-173.00
2141.02,434.00
2142.03,46.00
2143.03,317.00
2144.04,-214.00
2145.04,253.00
2146.05,-495.00
2147.06,-273.00
2148.06,-605.00
2149.07,465.00
2150.07,411.00
2151.07,-131.00
2152.08,310.00
2153.08,115.00
2154.09,-56.00
2155.09,-364.00
2156.09,-227.00
2157.10,460.00
2158.10,383.00
2159.10,1120.00
2160.10,158.00
2161.11,158.00
2162.11,439.00
2163.11,-246.00
2164.11,-140.00
2165.11,198.00
2166.11,345.00
2167.11,-310.00
2168.11,790.00
2169.11,-246.00
2170.11,258.00
2171.11,26.00
2172.11,105.00
2173.11,-311.00
2174.11,262.00
2175.11,317.00
2176.11,-345.00
2177.11,14.00
2178.10,-33.00
2179.10,-104.00
2180.10,1.00
2181.10,906.00
2182.09,371.00
2183.09,51.00
2184.09,36.00
2185.08,8.00
2186.08,-62.00
2187.08,-317.00
2188.07,-591.00
2189.07,437.00
2190.06,360.00
2191.06,857.00
2192.05,-320.00
2193.05,34.00
2194.04,438.00
2195.04,254.00
2196.03,-227.00
2197.02,-361.00
2198.02,-90.00
2199.01,-359.00
2200.00,534.00
2201.00,250.00
2201.99,503.00
2202.98,-334.00
2203.97,-315.00
2204.97,187.00
2205.96,-336.00
2206.95,39.00
2207.94,-203.00
2208.93,459.00
2209.92,390.00
2210.91,-347.00
2211.90,52.00
2212.89,-447.00
2213.88,-674.00
2214.87,525.00
2215.86,921.00
2216.85,206.00
2217.84,39.00
2218.83,82.00
2219.82,-341.00
2220.81,-448.00
2221.80,347.00
2222.78,-84.00
2223.77,559.00
2224.76,-227.00
2225.75,313.00
2226.73,717.00
2227.72,-183.00
2228.71,-25.00
2229.70,-47.00
2230.68,574.00
2231.67,512.00
2232.65,552.00
2233.64,-192.00
2234.63,-42.00
2235.61,-770.00
2236.60,-176.00
2237.58,16.00
2238.57,462.00
2239.55,-261.00
2240.53,172.00
2241.52,-13.00
2242.50,-551.00
2243.49,633.00
2244.47,856.00
2245.45,981.00
2246.44,-66.00
2247.42,-185.00
2248.40,252.00
2249.38,20.00
2250.37,1024.00
2251.35,567.00
2252.33,-402.00
2253.31,-52.00
2254.29,980.00
2255.28,158.00
2256.26,417.00
2257.24,-301.00
2258.22,169.00
2259.20,-374.00
2260.18,-131.00
2261.16,508.00
2262.14,282.00
2263.12,-423.00
2264.10,81.00
2265.08,281.00
2266.06,-116.00
2267.04,-314.00
2268.01,-675.00
2268.99,76.00
2269.97,231.00
2270.95,174.00
2271.93,-276.00
2272.90,349.00
2273.88,648.00
2274.86,-1.00
2275.84,-318.00
2276.81,177.00
2277.79,131.00
2278.77,-270.00
2279.74,645.00
2280.72,669.00
2281.70,28.00
2282.67,133.00
2283.65,-218.00
2284.62,405.00
2285.60,336.00
2286.57,152.00
2287.55,56.00
2288.52,405.00
2289.50,-191.00
2290.47,-157.00
2291.45,-182.00
2292.42,-152.00
2293.39,-146.00
2294.37,-141.00
2295.34,890.00
2296.31,106.00
2297.29,448.00
2298.26,-446.00
2299.23,616.00
2300.21,240.00
2301.18,386.00
2302.15,-44.00
2303.12,383.00
2304.09,909.00
2305.07,-32.00
2306.04,-563.00
2307.01,229.00
2307.98,217.00
2308.95,292.00
2309.92,97.00
2310.89,261.00
2311.86,1165.00
2312.83,-900.00
2313.80,-509.00
2314.77,287.00
2315.74,487.00
2316.71,549.00
2317.68,-243.00
2318.65,28.00
2319.62,-302.00
2320.59,-406.00
2321.56,25.00
2322.53,904.00
2323.49,401.00
2324.46,289.00
2325.43,-965.00
2326.40,53.00
2327.36,-7.00
2328.33,-487.00
2329.30,616.00
2330.27,742.00
2331.23,-695.00
2332.20,234.00
2333.17,36.00
2334.13,483.00
2335.10,637.00
2336.07,725.00
2337.03,220.00
2338.00,12.00
2338.96,-222.00
2339.93,-236.00
2340.89,-410.00
2341.86,-66.00
2342.82,671.00
2343.79,168.00
2344.75,91.00
2345.72,143.00
2346.68,298.00
2347.64,-67.00
2348.61,-150.00
2349.57,-211.00
2350.54,837.00
2351.50,-162.00
2352.46,30.00
2353.43,582.00
2354.39,157.00
2355.35,938.00
2356.31,-119.00
2357.28,92.00
2358.24,561.00
2359.20,567.00
2360.16,-207.00
2361.12,34.00
2362.09,683.00
2363.05,817.00
2364.01,499.00
2364.97,420.00
2365.93,227.00
2366.89,-11.00
2367.85,263.00
2368.81,72.00
2369.77,228.00
2370.73,5.00
2371.69,-114.00
2372.65,-170.00
2373.61,260.00
2374.57,38.00
2375.53,623.00
2376.49,17.00
2377.45,-171.00
2378.41,-61.00
2379.37,-405.00
2380.33,-407.00
2381.29,-297.00
2382.24,188.00
2383.20,-42.00
2384.16,259.00
2385.12,419.00
2386.08,-100.00
2387.03,278.00
2387.99,125.00
2388.95,-369.00
2389.91,-302.00
2390.86,271.00
2391.82,216.00
2392.78,-96.00
2393.73,210.00
2394.69,-236.00
2395.65,-209.00
2396.60,497.00
2397.56,-479.00
2398.51,-5.00
2399.47,-20.00
2400.43,20.00
2401.38,-363.00
2402.34,-301.00
2403.29,-352.00
2404.25,514.00
2405.20,-220.00
2406.16,-162.00
2407.11,532.00
2408.07,105.00
2409.02,35.00
2409.97,-275.00
2410.93,536.00
2411.88,670.00
2412.84,110.00
2413.79,-488.00
2414.74,-423.00
2415.70,-337.00
2416.65,299.00
2417.60,245.00
2418.55,254.00
2419.51,387.00
2420.46,694.00
2421.41,554.00
2422.37,451.00
2423.32,328.00
2424.27,107.00
2425.22,-129.00
2426.17,37.00
2427.12,842.00
2428.08,689.00
2429.03,261.00
2429.98,208.00
2430.93,109.00
2431.88,49.00
2432.83,-84.00
2433.78,98.00
2434.73,768.00
2435.68,-473.00
2436.63,36.00
2437.58,-314.00
2438.53,723.00
2439.48,-58.00
2440.43,118.00
2441.38,80.00
2442.33,156.00
2443.28,215.00
2444.23,-96.00
2445.18,459.00
2446.13,-55.00
2447.08,-251.00
2448.03,-196.00
2448.98,425.00
2449.92,118.00
2450.87,338.00
2451.82,-219.00
2452.77,-362.00
2453.72,354.00
2454.67,87.00
2455.61,790.00
2456.56,-21.00
2457.51,873.00
2458.46,278.00
2459.40,237.00
2460.35,730.00
2461.30,-378.00
2462.24,657.00
2463.19,583.00
2464.14,163.00
2465.08,-149.00
2466.03,-33.00
2466.98,236.00
2467.92,224.00
2468.87,-239.00
2469.81,-791.00
2470.76,281.00
2471.71,633.00
2472.65,55.00
2473.60,93.00
2474.54,-378.00
2475.49,791.00
2476.43,154.00
2477.38,-283.00
2478.32,402.00
2479.27,214.00
2480.21,-47.00
2481.16,215.00
2482.10,-528.00
2483.05,121.00
2483.99,42.00
2484.93,90.00
2485.88,680.00
2486.82,-187.00
2487.76,3.00
2488.71,178.00
2489.65,426.00
2490.60,587.00
2491.54,125.00
2492.48,-8.00
2493.42,276.00
2494.37,506.00
2495.31,120.00
2496.25,185.00
2497.20,157.00
2498.14,-22.00
2499.08,533.00
2500.02,374.00
2500.96,410.00
2501.91,-195.00
2502.85,241.00
2503.79,88.00
2504.73,638.00
2505.67,753.00
2506.62,79.00
2507.56,-31.00
2508.50,-435.00
2509.44,194.00
2510.38,-255.00
2511.32,198.00
2512.26,745.00
2513.20,718.00
2514.14,339.00
2515.08,438.00
2516.02,-133.00
2516.96,-202.00
2517.91,-51.00
2518.85,163.00
2519.79,-35.00
2520.73,29.00
2521.66,858.00
2522.60,108.00
2523.54,30.00
2524.48,284.00
2525.42,477.00
2526.36,2.00
2527.30,538.00
2528.24,576.00
2529.18,-127.00
2530.12,-50.00
2531.06,529.00
2532.00,-10.00
2532.93,368.00
2533.87,366.00
2534.81,278.00
2535.75,306.00
2536.69,-26.00
2537.63,74.00
2538.56,-388.00
2539.50,-429.00
2540.44,-135.00
2541.38,308.00
2542.32,878.00
2543.25,-202.00
2544.19,828.00
2545.13,-56.00
2546.07,344.00
2547.00,363.00
2547.94,-22.00
2548.88,421.00
2549.81,-430.00
2550.75,310.00
2551.69,497.00
2552.62,706.00
2553.56,-3.00
2554.50,-237.00
2555.43,-61.00
2556.37,288.00
2557.30,-20.00
2558.24,667.00
2559.18,385.00
2560.11,-27.00
2561.05,495.00
2561.98,344.00
2562.92,-17.00
2563.86,619.00
2564.79,905.00
2565.73,665.00
2566.66,296.00
2567.60,44.00
2568.53,451.00
2569.47,397.00
2570.40,-116.00
2571.34,-422.00
2572.27,223.00
2573.21,404.00
2574.14,813.00
2575.07,11.00
2576.01,225.00
2576.94,547.00
2577.88,362.00
2578.81,-565.00
2579.75,157.00
2580.68,49.00
2581.61,328.00
2582.55,360.00
2583.48,-493.00
2584.42,679.00
2585.35,1300.00
2586.28,160.00
2587.22,644.00
2588.15,-406.00
2589.08,666.00
2590.02,-15.00
2590.95,-156.00
2591.88,-74.00
2592.81,876.00
2593.75,321.00
2594.68,5.00
2595.61,-395.00
2596.55,552.00
2597.48,222.00
2598.41,37.00
2599.34,-271.00
2600.28,768.00
2601.21,-181.00
2602.14,765.00
2603.07,265.00
2604.00,1078.00
2604.94,61.00
2605.87,-80.00
2606.80,497.00
2607.73,185.00
2608.66,-213.00
2609.59,436.00
2610.53,-381.00
2611.46,674.00
2612.39,-158.00
2613.32,191.00
2614.25,509.00
2615.18,154.00
2616.11,344.00
2617.04,150.00
2617.97,338.00
2618.91,-130.00
2619.84,68.00
2620.77,283.00
2621.70,753.00
2622.63,325.00
2623.56,1196.00
2624.49,257.00
2625.42,669.00
2626.35,299.00
2627.28,-72.00
2628.21,777.00
2629.14,271.00
2630.07,152.00
2631.00,634.00
2631.93,978.00
2632.86,935.00
2633.79,-47.00
2634.72,-182.00
2635.65,508.00
2636.58,-44.00
2637.51,252.00
2638.44,174.00
2639.37,611.00
2640.30,313.00
2641.23,-99.00
2642.15,-167.00
2643.08,874.00
2644.01,427.00
2644.94,358.00
2645.87,119.00
2646.80,471.00
2647.73,-468.00
2648.66,-247.00
2649.59,452.00
2650.51,-230.00
2651.44,485.00
2652.37,-621.00
2653.30,150.00
2654.23,1109.00
2655.16,568.00
2656.08,-258.00
2657.01,-36.00
2657.94,7.00
2658.87,114.00
2659.80,166.00
2660.72,-117.00
2661.65,46.00
2662.58,322.00
2663.51,280.00
2664.44,558.00
2665.36,-59.00
2666.29,673.00
2667.22,770.00
2668.15,296.00
2669.07,-133.00
2670.00,-75.00
2670.93,133.00
2671.86,191.00
2672.78,336.00
2673.71,-414.00
2674.64,0.00
2675.56,0.00
2676.49,0.00
2677.42,0.00
2678.35,0.00
