ENLIGHTEN Version,1.6.8
Measurement ID,20190528-091700-207301-WP-00382
Serial Number,WP-00382
Label,Urea
Integration Time,500
Timestamp,2019-05-28 09:17:00.207301
Note,
Temperature,-99
CCD C0,798.9494018554688
CCD C1,0.3235599994659424
CCD C2,-4.676200114772655e-05
CCD C3,-1.6238999478446203e-08
CCD Offset,0
CCD Gain,1.9
Laser Wavelength,830.0
Laser Enable,False
Laser Power,100.0
Laser Temperature,-99
Pixel Count,1024

Wavenumber,Processed
-468.24,-6.00
-463.18,-17.00
-458.12,2.00
-453.06,10.00
-448.01,6.00
-442.97,-6.00
-437.93,-9.00
-432.90,-17.00
-427.87,-5.00
-422.85,2.00
-417.83,6.00
-412.82,5.00
-407.82,-8.00
-402.82,-10.00
-397.82,-13.00
-392.83,13.00
-387.85,-2.00
-382.87,8.00
-377.90,9.00
-372.93,-7.00
-367.97,-4.00
-363.01,2.00
-358.06,10.00
-353.12,10.00
-348.18,-7.00
-343.24,-7.00
-338.31,-2.00
-333.39,5.00
-328.47,13.00
-323.56,2.00
-318.65,4.00
-313.75,7.00
-308.85,12.00
-303.96,7.00
-299.08,2.00
-294.19,-6.00
-289.32,6.00
-284.45,-13.00
-279.58,5.00
-274.72,15.00
-269.87,17.00
-265.02,0.00
-260.18,-8.00
-255.34,-10.00
-250.51,13.00
-245.68,9.00
-240.86,0.00
-236.04,11.00
-231.23,0.00
-226.42,-11.00
-221.62,12.00
-216.82,25.00
-212.03,2.00
-207.25,-7.00
-202.46,-11.00
-197.69,-4.00
-192.92,2.00
-188.15,15.00
-183.39,1.00
-178.64,4.00
-173.89,0.00
-169.15,11.00
-164.41,10.00
-159.67,-2.00
-154.94,2.00
-150.22,7.00
-145.50,-6.00
-140.79,4.00
-136.08,19.00
-131.38,0.00
-126.68,2.00
-121.99,-2.00
-117.30,-11.00
-112.62,-7.00
-107.94,9.00
-103.27,9.00
-98.60,14.00
-93.94,-2.00
-89.28,-10.00
-84.63,8.00
-79.98,13.00
-75.34,3.00
-70.70,-4.00
-66.07,-2.00
-61.44,-17.00
-56.82,-2.00
-52.20,0.00
-47.59,2.00
-42.98,-4.00
-38.38,-15.00
-33.78,0.00
-29.19,-6.00
-24.60,25.00
-20.02,-6.00
-15.44,-11.00
-10.87,2.00
-6.31,2.00
-1.74,3.00
2.81,2.00
7.37,6.00
11.91,-15.00
16.46,-7.00
20.99,-15.00
25.53,7.00
30.05,11.00
34.58,-6.00
39.09,-1.00
43.61,-18.00
48.12,-10.00
52.62,10.00
57.12,10.00
61.61,-4.00
66.10,2.00
70.58,-6.00
75.06,-10.00
79.54,0.00
84.01,7.00
88.47,0.00
92.93,8.00
97.38,-15.00
101.83,6.00
106.28,0.00
110.72,17.00
115.16,-3.00
119.59,8.00
124.01,2.00
128.43,4.00
132.85,11.00
137.26,15.00
141.67,-8.00
146.07,-4.00
150.47,-4.00
154.86,5.00
159.25,6.00
163.63,8.00
168.01,26.00
172.38,10.00
176.75,12.00
181.12,18.00
185.47,29.00
189.83,25.00
194.18,26.00
198.52,38.00
202.87,42.00
207.20,51.00
211.53,97.00
215.86,105.00
220.18,162.00
224.50,211.00
228.81,300.00
233.12,407.00
237.42,521.00
241.72,591.00
246.02,568.00
250.30,614.00
254.59,552.00
258.87,502.00
263.15,474.00
267.42,455.00
271.68,434.00
275.94,389.00
280.20,388.00
284.45,390.00
288.70,388.00
292.95,359.00
297.18,382.00
301.42,360.00
305.65,343.00
309.87,317.00
314.09,363.00
318.31,336.00
322.52,331.00
326.73,321.00
330.93,327.00
335.13,336.00
339.32,371.00
343.51,339.00
347.69,354.00
351.87,331.00
356.05,407.00
360.22,409.00
364.39,449.00
368.55,466.00
372.71,491.00
376.86,506.00
381.01,554.00
385.15,551.00
389.29,544.00
393.43,516.00
397.56,493.00
401.68,471.00
405.80,478.00
409.92,413.00
414.03,426.00
418.14,398.00
422.25,404.00
426.35,380.00
430.44,379.00
434.53,397.00
438.62,386.00
442.70,375.00
446.78,405.00
450.85,378.00
454.92,394.00
458.98,384.00
463.04,437.00
467.10,424.00
471.15,415.00
475.20,401.00
479.24,424.00
483.28,462.00
487.31,500.00
491.34,458.00
495.37,464.00
499.39,462.00
503.41,502.00
507.42,496.00
511.43,508.00
515.43,532.00
519.43,554.00
523.42,601.00
527.42,628.00
531.40,708.00
535.38,851.00
539.36,1168.00
543.34,1806.00
547.31,3050.00
551.27,4573.00
555.23,4530.00
559.19,3173.00
563.14,2182.00
567.09,1826.00
571.03,1695.00
574.97,1602.00
578.91,1512.00
582.84,1310.00
586.77,1082.00
590.69,915.00
594.61,780.00
598.52,761.00
602.43,703.00
606.34,705.00
610.24,696.00
614.14,636.00
618.03,657.00
621.92,649.00
625.80,674.00
629.68,662.00
633.56,647.00
637.43,650.00
641.30,647.00
645.17,677.00
649.03,703.00
652.88,689.00
656.73,671.00
660.58,704.00
664.42,658.00
668.26,721.00
672.10,716.00
675.93,723.00
679.76,702.00
683.58,690.00
687.40,754.00
691.21,752.00
695.02,730.00
698.83,727.00
702.63,719.00
706.43,749.00
710.22,765.00
714.02,762.00
717.80,719.00
721.58,749.00
725.36,712.00
729.13,721.00
732.90,726.00
736.67,718.00
740.43,702.00
744.19,732.00
747.94,687.00
751.69,710.00
755.44,713.00
759.18,677.00
762.92,666.00
766.65,654.00
770.38,708.00
774.11,664.00
777.83,647.00
781.55,695.00
785.26,677.00
788.97,685.00
792.67,686.00
796.38,658.00
800.07,706.00
803.77,675.00
807.46,679.00
811.14,677.00
814.82,639.00
818.50,719.00
822.18,692.00
825.85,683.00
829.51,667.00
833.17,713.00
836.83,683.00
840.49,676.00
844.14,719.00
847.78,698.00
851.42,700.00
855.06,709.00
858.70,710.00
862.33,695.00
865.96,717.00
869.58,692.00
873.20,687.00
876.81,692.00
880.42,692.00
884.03,668.00
887.63,670.00
891.23,706.00
894.83,700.00
898.42,719.00
902.01,683.00
905.59,689.00
909.17,755.00
912.75,677.00
916.32,723.00
919.89,732.00
923.46,692.00
927.02,740.00
930.57,747.00
934.13,780.00
937.68,719.00
941.22,750.00
944.76,772.00
948.30,771.00
951.84,786.00
955.37,793.00
958.89,837.00
962.42,875.00
965.94,807.00
969.45,889.00
972.96,875.00
976.47,930.00
979.98,1001.00
983.48,1075.00
986.97,1173.00
990.46,1432.00
993.95,1752.00
997.44,2332.00
1000.92,3354.00
1004.40,5291.00
1007.87,9075.00
1011.34,15438.00
1014.81,22564.00
1018.27,23184.00
1021.73,16294.00
1025.19,9474.00
1028.64,5667.00
1032.09,3647.00
1035.53,2684.00
1038.97,2088.00
1042.41,1777.00
1045.84,1593.00
1049.27,1453.00
1052.70,1322.00
1056.12,1265.00
1059.54,1253.00
1062.95,1257.00
1066.36,1106.00
1069.77,1161.00
1073.17,1119.00
1076.57,1060.00
1079.97,1023.00
1083.36,1043.00
1086.75,943.00
1090.13,904.00
1093.52,886.00
1096.89,909.00
1100.27,862.00
1103.64,809.00
1107.01,833.00
1110.37,806.00
1113.73,792.00
1117.09,791.00
1120.44,780.00
1123.79,752.00
1127.13,782.00
1130.47,709.00
1133.81,763.00
1137.15,776.00
1140.48,800.00
1143.80,799.00
1147.13,829.00
1150.45,844.00
1153.77,896.00
1157.08,967.00
1160.39,993.00
1163.69,1072.00
1167.00,1115.00
1170.29,1191.00
1173.59,1366.00
1176.88,1422.00
1180.17,1493.00
1183.45,1522.00
1186.73,1426.00
1190.01,1354.00
1193.29,1202.00
1196.56,1041.00
1199.82,914.00
1203.09,788.00
1206.35,732.00
1209.60,676.00
1212.85,612.00
1216.10,550.00
1219.35,500.00
1222.59,519.00
1225.83,485.00
1229.06,466.00
1232.30,451.00
1235.52,411.00
1238.75,425.00
1241.97,411.00
1245.19,373.00
1248.40,415.00
1251.61,352.00
1254.82,369.00
1258.02,339.00
1261.22,355.00
1264.42,345.00
1267.61,334.00
1270.80,334.00
1273.99,321.00
1277.17,329.00
1280.35,298.00
1283.53,289.00
1286.70,314.00
1289.87,304.00
1293.03,308.00
1296.20,280.00
1299.36,251.00
1302.51,262.00
1305.66,253.00
1308.81,289.00
1311.96,281.00
1315.10,262.00
1318.24,238.00
1321.37,257.00
1324.50,253.00
1327.63,282.00
1330.75,219.00
1333.88,217.00
1336.99,228.00
1340.11,221.00
1343.22,226.00
1346.33,217.00
1349.43,221.00
1352.53,201.00
1355.63,211.00
1358.72,192.00
1361.82,232.00
1364.90,221.00
1367.99,192.00
1371.07,220.00
1374.14,196.00
1377.22,202.00
1380.29,181.00
1383.36,187.00
1386.42,181.00
1389.48,183.00
1392.54,191.00
1395.59,186.00
1398.64,207.00
1401.69,203.00
1404.74,196.00
1407.78,200.00
1410.81,194.00
1413.85,201.00
1416.88,196.00
1419.91,207.00
1422.93,203.00
1425.95,213.00
1428.97,217.00
1431.98,234.00
1434.99,232.00
1438.00,219.00
1441.01,232.00
1444.01,232.00
1447.00,264.00
1450.00,260.00
1452.99,286.00
1455.98,318.00
1458.96,348.00
1461.94,371.00
1464.92,440.00
1467.90,536.00
1470.87,554.00
1473.84,551.00
1476.80,533.00
1479.76,481.00
1482.72,419.00
1485.68,379.00
1488.63,322.00
1491.58,304.00
1494.53,263.00
1497.47,245.00
1500.41,260.00
1503.34,251.00
1506.28,258.00
1509.21,276.00
1512.13,264.00
1515.06,310.00
1517.98,325.00
1520.89,392.00
1523.81,433.00
1526.72,514.00
1529.62,601.00
1532.53,740.00
1535.43,957.00
1538.33,1158.00
1541.22,1368.00
1544.11,1507.00
1547.00,1509.00
1549.89,1369.00
1552.77,1205.00
1555.65,1022.00
1558.52,838.00
1561.39,746.00
1564.26,596.00
1567.13,563.00
1569.99,504.00
1572.85,535.00
1575.71,530.00
1578.56,559.00
1581.41,611.00
1584.26,613.00
1587.10,633.00
1589.94,565.00
1592.78,494.00
1595.61,463.00
1598.45,453.00
1601.27,414.00
1604.10,462.00
1606.92,458.00
1609.74,479.00
1612.56,483.00
1615.37,525.00
1618.18,573.00
1620.98,643.00
1623.79,708.00
1626.59,745.00
1629.38,762.00
1632.18,790.00
1634.97,794.00
1637.76,797.00
1640.54,848.00
1643.32,920.00
1646.10,1049.00
1648.88,1168.00
1651.65,1303.00
1654.42,1292.00
1657.19,1149.00
1659.95,896.00
1662.71,657.00
1665.47,512.00
1668.22,402.00
1670.97,355.00
1673.72,312.00
1676.46,280.00
1679.21,268.00
1681.94,260.00
1684.68,262.00
1687.41,242.00
1690.14,253.00
1692.87,221.00
1695.59,219.00
1698.31,206.00
1701.03,181.00
1703.74,200.00
1706.46,179.00
1709.16,166.00
1711.87,150.00
1714.57,154.00
1717.27,156.00
1719.97,142.00
1722.66,156.00
1725.35,124.00
1728.04,145.00
1730.72,129.00
1733.40,131.00
1736.08,120.00
1738.76,120.00
1741.43,127.00
1744.10,102.00
1746.77,104.00
1749.43,110.00
1752.09,150.00
1754.75,145.00
1757.40,122.00
1760.05,112.00
1762.70,124.00
1765.35,127.00
1767.99,109.00
1770.63,134.00
1773.27,130.00
1775.90,116.00
1778.53,133.00
1781.16,124.00
1783.78,148.00
1786.41,162.00
1789.02,144.00
1791.64,143.00
1794.25,139.00
1796.86,156.00
1799.47,120.00
1802.07,169.00
1804.68,148.00
1807.27,148.00
1809.87,144.00
1812.46,118.00
1815.05,135.00
1817.64,118.00
1820.22,116.00
1822.80,101.00
1825.38,116.00
1827.96,111.00
1830.53,124.00
1833.10,95.00
1835.66,97.00
1838.23,97.00
1840.79,99.00
1843.35,95.00
1845.90,84.00
1848.45,80.00
1851.00,67.00
1853.55,67.00
1856.09,63.00
1858.63,90.00
1861.17,64.00
1863.70,71.00
1866.23,68.00
1868.76,63.00
1871.29,80.00
1873.81,87.00
1876.33,84.00
1878.85,76.00
1881.36,65.00
1883.88,49.00
1886.38,68.00
1888.89,65.00
1891.39,66.00
1893.89,70.00
1896.39,51.00
1898.89,59.00
1901.38,57.00
1903.87,80.00
1906.35,67.00
1908.84,53.00
1911.32,61.00
1913.79,48.00
1916.27,69.00
1918.74,48.00
1921.21,55.00
1923.67,55.00
1926.14,49.00
1928.60,56.00
1931.06,48.00
1933.51,66.00
1935.96,61.00
1938.41,69.00
1940.86,49.00
1943.30,36.00
1945.74,52.00
1948.18,59.00
1950.62,36.00
1953.05,68.00
1955.48,47.00
1957.91,72.00
1960.33,55.00
1962.75,50.00
1965.17,57.00
1967.59,55.00
1970.00,55.00
1972.41,65.00
1974.82,62.00
1977.22,57.00
1979.62,67.00
1982.02,36.00
1984.42,51.00
1986.81,46.00
1989.20,49.00
1991.59,67.00
1993.98,59.00
1996.36,55.00
1998.74,49.00
2001.12,48.00
2003.49,72.00
2005.86,59.00
2008.23,48.00
2010.60,65.00
2012.96,59.00
2015.32,50.00
2017.68,77.00
2020.04,55.00
2022.39,54.00
2024.74,47.00
2027.08,59.00
2029.43,59.00
2031.77,38.00
2034.11,52.00
2036.45,43.00
2038.78,47.00
2041.11,42.00
2043.44,55.00
2045.76,62.00
2048.09,59.00
2050.40,49.00
2052.72,53.00
2055.04,34.00
2057.35,44.00
2059.66,64.00
2061.96,53.00
2064.27,46.00
2066.57,44.00
2068.87,50.00
2071.16,38.00
2073.45,42.00
2075.74,49.00
2078.03,53.00
2080.32,57.00
2082.60,44.00
2084.88,55.00
2087.16,64.00
2089.43,66.00
2091.70,44.00
2093.97,38.00
2096.24,36.00
2098.50,54.00
2100.76,42.00
2103.02,44.00
2105.27,48.00
2107.53,47.00
2109.78,29.00
2112.02,51.00
2114.27,53.00
2116.51,36.00
2118.75,29.00
2120.99,40.00
2123.22,36.00
2125.45,40.00
2127.68,40.00
2129.91,34.00
2132.13,38.00
2134.35,35.00
2136.57,36.00
2138.79,49.00
2141.00,59.00
2143.21,29.00
2145.42,34.00
2147.62,34.00
2149.83,29.00
2152.03,51.00
2154.22,44.00
2156.42,32.00
2158.61,40.00
2160.80,19.00
2162.99,27.00
2165.17,25.00
2167.35,30.00
2169.53,38.00
2171.71,36.00
2173.88,21.00
2176.05,19.00
2178.22,38.00
2180.39,42.00
2182.55,42.00
2184.71,15.00
2186.87,31.00
2189.03,23.00
2191.18,43.00
2193.33,48.00
2195.48,34.00
2197.63,43.00
2199.77,14.00
2201.91,28.00
2204.05,54.00
2206.18,55.00
2208.31,47.00
2210.44,32.00
2212.57,40.00
2214.70,40.00
2216.82,46.00
2218.94,25.00
2221.06,48.00
2223.17,26.00
2225.28,38.00
2227.39,32.00
2229.50,44.00
2231.60,30.00
2233.71,38.00
2235.80,25.00
2237.90,25.00
2240.00,42.00
2242.09,38.00
2244.18,35.00
2246.26,44.00
2248.35,26.00
2250.43,36.00
2252.51,36.00
2254.58,38.00
2256.66,45.00
2258.73,26.00
2260.80,30.00
2262.86,31.00
2264.93,38.00
2266.99,46.00
2269.05,40.00
2271.10,29.00
2273.16,35.00
2275.21,26.00
2277.26,49.00
2279.30,44.00
2281.35,39.00
2283.39,23.00
2285.43,28.00
2287.46,27.00
2289.50,38.00
2291.53,44.00
2293.56,28.00
2295.58,32.00
2297.61,23.00
2299.63,28.00
2301.65,32.00
2303.66,45.00
2305.68,19.00
2307.69,23.00
2309.70,36.00
2311.70,17.00
2313.71,21.00
2315.71,15.00
2317.71,30.00
2319.70,28.00
2321.70,16.00
2323.69,17.00
2325.68,34.00
2327.66,28.00
2329.65,25.00
2331.63,21.00
2333.61,15.00
2335.59,23.00
2337.56,36.00
2339.53,19.00
2341.50,45.00
2343.47,23.00
2345.43,21.00
2347.39,19.00
2349.35,36.00
2351.31,25.00
2353.26,2.00
2355.22,23.00
2357.17,24.00
2359.11,29.00
2361.06,32.00
2363.00,22.00
2364.94,7.00
2366.88,21.00
2368.81,23.00
2370.74,21.00
2372.67,25.00
2374.60,26.00
2376.53,26.00
2378.45,18.00
2380.37,30.00
2382.29,17.00
2384.20,21.00
2386.12,9.00
2388.03,31.00
2389.93,14.00
2391.84,13.00
2393.74,26.00
2395.64,29.00
2397.54,18.00
2399.44,6.00
2401.33,17.00
2403.22,17.00
2405.11,23.00
2407.00,40.00
2408.88,21.00
2410.76,17.00
2412.64,10.00
2414.52,19.00
2416.40,30.00
2418.27,32.00
2420.14,36.00
2422.00,30.00
2423.87,15.00
2425.73,36.00
2427.59,21.00
2429.45,36.00
2431.30,8.00
2433.16,30.00
2435.01,24.00
2436.86,11.00
2438.70,21.00
2440.54,36.00
2442.39,28.00
2444.22,23.00
2446.06,0.00
2447.89,34.00
2449.73,32.00
2451.55,32.00
2453.38,28.00
2455.21,15.00
2457.03,21.00
2458.85,29.00
2460.66,22.00
2462.48,30.00
2464.29,24.00
2466.10,21.00
2467.91,19.00
2469.71,5.00
2471.52,42.00
2473.32,36.00
2475.12,25.00
2476.91,19.00
2478.71,19.00
2480.50,40.00
2482.29,36.00
2484.07,27.00
2485.86,25.00
2487.64,16.00
2489.42,8.00
2491.20,21.00
2492.97,43.00
2494.74,40.00
2496.51,26.00
2498.28,13.00
2500.05,20.00
2501.81,19.00
2503.57,28.00
2505.33,33.00
2507.09,31.00
2508.84,38.00
2510.59,26.00
2512.34,27.00
2514.09,29.00
2515.83,43.00
2517.57,29.00
2519.31,32.00
2521.05,37.00
2522.79,25.00
2524.52,47.00
2526.25,21.00
2527.98,34.00
2529.70,13.00
2531.43,29.00
2533.15,43.00
2534.87,24.00
2536.58,42.00
2538.30,35.00
2540.01,25.00
2541.72,27.00
2543.43,44.00
2545.13,40.00
2546.84,31.00
2548.54,46.00
2550.24,38.00
2551.93,21.00
2553.62,38.00
2555.32,34.00
2557.01,40.00
2558.69,4.00
2560.38,13.00
2562.06,27.00
2563.74,34.00
2565.42,34.00
2567.09,42.00
2568.77,25.00
2570.44,17.00
2572.10,26.00
2573.77,42.00
2575.43,38.00
2577.10,55.00
2578.76,31.00
2580.41,24.00
2582.07,38.00
2583.72,32.00
2585.37,38.00
2587.02,38.00
2588.66,38.00
2590.31,24.00
2591.95,29.00
2593.59,29.00
2595.22,53.00
2596.86,28.00
2598.49,17.00
2600.12,19.00
2601.75,13.00
2603.37,30.00
2605.00,18.00
2606.62,37.00
2608.24,25.00
2609.85,10.00
2611.47,33.00
2613.08,21.00
2614.69,21.00
2616.30,15.00
2617.90,16.00
2619.50,17.00
2621.10,17.00
2622.70,15.00
2624.30,33.00
2625.89,10.00
2627.48,11.00
2629.07,13.00
2630.66,9.00
2632.25,38.00
2633.83,9.00
2635.41,9.00
2636.99,15.00
2638.56,23.00
2640.14,23.00
2641.71,21.00
2643.28,16.00
2644.84,19.00
2646.41,2.00
