ENLIGHTEN Version,1.6.8
Measurement ID,20190528-110513-638870-WP-00357
Serial Number,WP-00357
Label,Urea
Integration Time,10
Timestamp,2019-05-28 11:05:13.638870
Note,
Temperature,-99
CCD C0,801.1829833984375
CCD C1,0.12474799901247025
CCD C2,-2.2862799596623518e-05
CCD C3,4.907460215974879e-09
CCD Offset,0
CCD Gain,1.9
Laser Wavelength,785.0
Laser Enable,False
Laser Power,100.0
Laser Temperature,-99
Pixel Count,1952

Wavenumber,Processed
257.31,0.00
259.25,0.00
261.19,0.00
263.13,175.00
265.07,-255.00
267.01,175.00
268.95,-39.00
270.88,118.00
272.82,588.00
274.75,-344.00
276.68,446.00
278.61,353.00
280.54,-281.00
282.46,-250.00
284.39,342.00
286.31,-257.00
288.24,-108.00
290.16,-474.00
292.08,-216.00
294.00,-108.00
295.92,-135.00
297.83,-216.00
299.75,464.00
301.66,-281.00
303.58,-127.00
305.49,-160.00
307.40,578.00
309.31,67.00
311.22,-239.00
313.12,-426.00
315.03,195.00
316.93,-51.00
318.83,44.00
320.73,-464.00
322.63,-923.00
324.53,-888.00
326.43,-129.00
328.33,183.00
330.22,-224.00
332.12,-185.00
334.01,75.00
335.90,-543.00
337.79,-193.00
339.68,179.00
341.57,-502.00
343.45,372.00
345.34,-324.00
347.22,124.00
349.10,-361.00
350.98,-72.00
352.86,655.00
354.74,9.00
356.62,14.00
358.50,164.00
360.37,59.00
362.24,242.00
364.12,-471.00
365.99,1022.00
367.86,-591.00
369.73,-34.00
371.59,651.00
373.46,-255.00
375.33,1023.00
377.19,130.00
379.05,247.00
380.91,-452.00
382.77,355.00
384.63,317.00
386.49,206.00
388.35,68.00
390.20,341.00
392.06,1021.00
393.91,419.00
395.76,286.00
397.61,416.00
399.46,291.00
401.31,-91.00
403.15,838.00
405.00,155.00
406.84,398.00
408.69,758.00
410.53,1079.00
412.37,-6.00
414.21,-379.00
416.05,512.00
417.88,128.00
419.72,761.00
421.55,145.00
423.39,-290.00
425.22,-20.00
427.05,626.00
428.88,77.00
430.71,648.00
432.54,845.00
434.36,351.00
436.19,154.00
438.01,152.00
439.83,418.00
441.65,-321.00
443.48,6.00
445.29,276.00
447.11,669.00
448.93,365.00
450.74,33.00
452.56,-284.00
454.37,176.00
456.18,546.00
457.99,639.00
459.80,248.00
461.61,1115.00
463.42,561.00
465.23,284.00
467.03,872.00
468.83,258.00
470.64,603.00
472.44,859.00
474.24,565.00
476.04,603.00
477.84,-148.00
479.63,820.00
481.43,55.00
483.22,193.00
485.02,602.00
486.81,494.00
488.60,380.00
490.39,530.00
492.18,266.00
493.96,1228.00
495.75,42.00
497.54,288.00
499.32,569.00
501.10,-241.00
502.88,367.00
504.67,328.00
506.45,344.00
508.22,96.00
510.00,494.00
511.78,1281.00
513.55,957.00
515.33,555.00
517.10,808.00
518.87,1097.00
520.64,651.00
522.41,1008.00
524.18,1539.00
525.94,1338.00
527.71,1813.00
529.47,1720.00
531.24,2438.00
533.00,1463.00
534.76,2434.00
536.52,2747.00
538.28,3923.00
540.04,3662.00
541.80,4510.00
543.55,4691.00
545.31,5431.00
547.06,6396.00
548.81,6262.00
550.56,6458.00
552.31,5415.00
554.06,6239.00
555.81,4575.00
557.56,3988.00
559.30,4445.00
561.05,4087.00
562.79,2980.00
564.53,3649.00
566.28,3504.00
568.02,3389.00
569.75,3404.00
571.49,2478.00
573.23,2644.00
574.97,2749.00
576.70,2474.00
578.43,2747.00
580.17,1857.00
581.90,1562.00
583.63,1486.00
585.36,1588.00
587.09,1458.00
588.81,919.00
590.54,1176.00
592.26,703.00
593.99,1424.00
595.71,1096.00
597.43,1575.00
599.15,460.00
600.87,766.00
602.59,894.00
604.31,565.00
606.02,107.00
607.74,238.00
609.45,113.00
611.17,116.00
612.88,580.00
614.59,-87.00
616.30,961.00
618.01,406.00
619.71,453.00
621.42,754.00
623.13,108.00
624.83,942.00
626.53,957.00
628.24,552.00
629.94,697.00
631.64,780.00
633.34,858.00
635.04,222.00
636.73,570.00
638.43,383.00
640.12,491.00
641.82,200.00
643.51,812.00
645.20,432.00
646.89,866.00
648.58,792.00
650.27,105.00
651.96,813.00
653.65,415.00
655.33,-111.00
657.02,492.00
658.70,382.00
660.38,6.00
662.06,234.00
663.74,-348.00
665.42,241.00
667.10,151.00
668.78,673.00
670.45,240.00
672.13,-37.00
673.80,902.00
675.48,301.00
677.15,549.00
678.82,-128.00
680.49,1064.00
682.16,545.00
683.83,584.00
685.49,691.00
687.16,-115.00
688.82,232.00
690.49,-200.00
692.15,-81.00
693.81,168.00
695.47,298.00
697.13,80.00
698.79,799.00
700.45,-129.00
702.11,292.00
703.76,16.00
705.42,133.00
707.07,659.00
708.72,601.00
710.37,510.00
712.02,97.00
713.67,-122.00
715.32,348.00
716.97,391.00
718.62,38.00
720.26,340.00
721.91,195.00
723.55,-155.00
725.19,836.00
726.84,-455.00
728.48,142.00
730.12,965.00
731.75,899.00
733.39,95.00
735.03,-276.00
736.66,320.00
738.30,262.00
739.93,11.00
741.57,355.00
743.20,-429.00
744.83,143.00
746.46,534.00
748.09,179.00
749.71,579.00
751.34,39.00
752.97,642.00
754.59,527.00
756.22,-133.00
757.84,468.00
759.46,-112.00
761.08,241.00
762.70,113.00
764.32,572.00
765.94,572.00
767.56,381.00
769.17,100.00
770.79,591.00
772.40,-5.00
774.01,364.00
775.63,120.00
777.24,-1303.00
778.85,514.00
780.46,-162.00
782.07,-278.00
783.67,369.00
785.28,903.00
786.88,723.00
788.49,443.00
790.09,-290.00
791.70,436.00
793.30,-169.00
794.90,-212.00
796.50,1411.00
798.10,24.00
799.69,-28.00
801.29,983.00
802.89,202.00
804.48,23.00
806.08,66.00
807.67,-180.00
809.26,-317.00
810.85,363.00
812.44,87.00
814.03,-176.00
815.62,158.00
817.21,-298.00
818.79,222.00
820.38,-419.00
821.96,101.00
823.55,-138.00
825.13,-184.00
826.71,-205.00
828.29,-88.00
829.87,-422.00
831.45,396.00
833.03,86.00
834.61,7.00
836.18,-278.00
837.76,-9.00
839.33,-413.00
840.91,112.00
842.48,817.00
844.05,137.00
845.62,78.00
847.19,-35.00
848.76,736.00
850.33,416.00
851.90,82.00
853.46,299.00
855.03,581.00
856.59,314.00
858.15,615.00
859.72,61.00
861.28,270.00
862.84,135.00
864.40,-179.00
865.96,1131.00
867.52,130.00
869.07,575.00
870.63,-600.00
872.18,311.00
873.74,-96.00
875.29,13.00
876.84,-483.00
878.40,546.00
879.95,-423.00
881.50,723.00
883.04,153.00
884.59,-478.00
886.14,-110.00
887.69,-153.00
889.23,20.00
890.78,379.00
892.32,962.00
893.86,112.00
895.40,-34.00
896.94,-95.00
898.48,535.00
900.02,-80.00
901.56,-515.00
903.10,296.00
904.63,532.00
906.17,419.00
907.70,136.00
909.24,-374.00
910.77,356.00
912.30,-255.00
913.83,-113.00
915.36,961.00
916.89,662.00
918.42,297.00
919.95,300.00
921.48,-110.00
923.00,388.00
924.53,408.00
926.05,274.00
927.57,-144.00
929.10,587.00
930.62,575.00
932.14,383.00
933.66,77.00
935.18,245.00
936.70,279.00
938.21,254.00
939.73,625.00
941.24,1231.00
942.76,-360.00
944.27,762.00
945.79,154.00
947.30,655.00
948.81,655.00
950.32,649.00
951.83,524.00
953.34,679.00
954.84,571.00
956.35,653.00
957.86,557.00
959.36,543.00
960.87,506.00
962.37,233.00
963.87,593.00
965.37,880.00
966.88,-129.00
968.38,573.00
969.87,391.00
971.37,521.00
972.87,204.00
974.37,779.00
975.86,322.00
977.36,178.00
978.85,199.00
980.35,1201.00
981.84,1007.00
983.33,1771.00
984.82,984.00
986.31,1502.00
987.80,2177.00
989.29,1271.00
990.77,2784.00
992.26,3362.00
993.75,3451.00
995.23,4306.00
996.72,6798.00
998.20,9109.00
999.68,10205.00
1001.16,11475.00
1002.64,15970.00
1004.12,19150.00
1005.60,22937.00
1007.08,26561.00
1008.56,28028.00
1010.04,29466.00
1011.51,32092.00
1012.99,34533.00
1014.46,35160.00
1015.93,34270.00
1017.41,35265.00
1018.88,33937.00
1020.35,31632.00
1021.82,30808.00
1023.29,25710.00
1024.76,22505.00
1026.23,18826.00
1027.69,17198.00
1029.16,14404.00
1030.62,13216.00
1032.09,10827.00
1033.55,9090.00
1035.02,7159.00
1036.48,6799.00
1037.94,5452.00
1039.40,3474.00
1040.86,3451.00
1042.32,3397.00
1043.78,3671.00
1045.23,2070.00
1046.69,1488.00
1048.15,2723.00
1049.60,1321.00
1051.05,2117.00
1052.51,2424.00
1053.96,1063.00
1055.41,1100.00
1056.86,1607.00
1058.31,2205.00
1059.76,1354.00
1061.21,1940.00
1062.66,917.00
1064.10,608.00
1065.55,1032.00
1067.00,70.00
1068.44,1292.00
1069.88,872.00
1071.33,1169.00
1072.77,1001.00
1074.21,751.00
1075.65,1458.00
1077.09,1139.00
1078.53,1827.00
1079.97,1093.00
1081.41,984.00
1082.84,992.00
1084.28,1495.00
1085.71,1728.00
1087.15,718.00
1088.58,793.00
1090.02,505.00
1091.45,1343.00
1092.88,673.00
1094.31,925.00
1095.74,575.00
1097.17,592.00
1098.60,1793.00
1100.02,634.00
1101.45,980.00
1102.88,1638.00
1104.30,1150.00
1105.73,130.00
1107.15,479.00
1108.57,393.00
1109.99,906.00
1111.42,1120.00
1112.84,697.00
1114.26,342.00
1115.68,844.00
1117.09,1237.00
1118.51,1212.00
1119.93,537.00
1121.34,582.00
1122.76,759.00
1124.17,1455.00
1125.59,1360.00
1127.00,684.00
1128.41,909.00
1129.82,841.00
1131.24,1469.00
1132.65,859.00
1134.05,1079.00
1135.46,390.00
1136.87,1487.00
1138.28,1018.00
1139.68,1245.00
1141.09,635.00
1142.50,609.00
1143.90,1487.00
1145.30,327.00
1146.71,1375.00
1148.11,1607.00
1149.51,1075.00
1150.91,1571.00
1152.31,753.00
1153.71,691.00
1155.11,651.00
1156.50,1431.00
1157.90,755.00
1159.30,1719.00
1160.69,1221.00
1162.08,1529.00
1163.48,1674.00
1164.87,2038.00
1166.26,2125.00
1167.66,1805.00
1169.05,2037.00
1170.44,2595.00
1171.83,1424.00
1173.21,2351.00
1174.60,2153.00
1175.99,1727.00
1177.38,1852.00
1178.76,1612.00
1180.15,2445.00
1181.53,2092.00
1182.92,2515.00
1184.30,2177.00
1185.68,2638.00
1187.06,1506.00
1188.44,1706.00
1189.82,1093.00
1191.20,2051.00
1192.58,1309.00
1193.96,1585.00
1195.34,1762.00
1196.71,1967.00
1198.09,1994.00
1199.46,1785.00
1200.84,1796.00
1202.21,1617.00
1203.58,967.00
1204.96,1606.00
1206.33,1798.00
1207.70,1425.00
1209.07,874.00
1210.44,1518.00
1211.81,438.00
1213.17,964.00
1214.54,622.00
1215.91,483.00
1217.27,366.00
1218.64,367.00
1220.00,455.00
1221.37,1107.00
1222.73,871.00
1224.09,793.00
1225.45,611.00
1226.82,103.00
1228.18,829.00
1229.54,264.00
1230.89,470.00
1232.25,848.00
1233.61,773.00
1234.97,541.00
1236.32,559.00
1237.68,1285.00
1239.03,923.00
1240.39,652.00
1241.74,889.00
1243.09,260.00
1244.45,1088.00
1245.80,306.00
1247.15,1178.00
1248.50,482.00
1249.85,571.00
1251.20,871.00
1252.54,923.00
1253.89,457.00
1255.24,496.00
1256.58,686.00
1257.93,53.00
1259.27,21.00
1260.62,300.00
1261.96,819.00
1263.30,936.00
1264.64,1050.00
1265.98,825.00
1267.33,420.00
1268.67,631.00
1270.00,880.00
1271.34,159.00
1272.68,1286.00
1274.02,43.00
1275.35,719.00
1276.69,1771.00
1278.03,1050.00
1279.36,804.00
1280.69,898.00
1282.03,768.00
1283.36,903.00
1284.69,885.00
1286.02,-89.00
1287.35,923.00
1288.68,1609.00
1290.01,147.00
1291.34,594.00
1292.67,852.00
1294.00,1673.00
1295.32,1003.00
1296.65,868.00
1297.97,627.00
1299.30,735.00
1300.62,1322.00
1301.94,334.00
1303.27,367.00
1304.59,720.00
1305.91,23.00
1307.23,338.00
1308.55,996.00
1309.87,1009.00
1311.19,1140.00
1312.51,430.00
1313.82,529.00
1315.14,357.00
1316.46,831.00
1317.77,-214.00
1319.09,489.00
1320.40,-128.00
1321.72,452.00
1323.03,906.00
1324.34,928.00
1325.65,407.00
1326.96,377.00
1328.27,597.00
1329.58,688.00
1330.89,11.00
1332.20,619.00
1333.51,1507.00
1334.82,1376.00
1336.12,1257.00
1337.43,689.00
1338.73,564.00
1340.04,907.00
1341.34,540.00
1342.65,570.00
1343.95,775.00
1345.25,820.00
1346.55,647.00
1347.85,1636.00
1349.15,761.00
1350.45,742.00
1351.75,923.00
1353.05,1419.00
1354.35,1098.00
1355.65,942.00
1356.94,349.00
1358.24,1220.00
1359.53,298.00
1360.83,468.00
1362.12,246.00
1363.42,521.00
1364.71,541.00
1366.00,832.00
1367.29,618.00
1368.58,1106.00
1369.87,167.00
1371.16,1621.00
1372.45,1417.00
1373.74,252.00
1375.03,720.00
1376.32,433.00
1377.60,931.00
1378.89,1163.00
1380.17,-97.00
1381.46,1119.00
1382.74,1401.00
1384.03,654.00
1385.31,1093.00
1386.59,576.00
1387.87,380.00
1389.15,985.00
1390.43,782.00
1391.71,976.00
1392.99,1272.00
1394.27,1069.00
1395.55,1004.00
1396.83,1755.00
1398.11,128.00
1399.38,978.00
1400.66,766.00
1401.93,1632.00
1403.21,1326.00
1404.48,1290.00
1405.75,233.00
1407.03,162.00
1408.30,1666.00
1409.57,1172.00
1410.84,946.00
1412.11,938.00
1413.38,455.00
1414.65,793.00
1415.92,1378.00
1417.19,771.00
1418.46,991.00
1419.72,988.00
1420.99,1591.00
1422.25,247.00
1423.52,834.00
1424.78,1851.00
1426.05,1556.00
1427.31,-565.00
1428.57,922.00
1429.84,1910.00
1431.10,981.00
1432.36,951.00
1433.62,1274.00
1434.88,1407.00
1436.14,255.00
1437.40,1319.00
1438.65,1697.00
1439.91,1354.00
1441.17,1000.00
1442.43,816.00
1443.68,775.00
1444.94,684.00
1446.19,1221.00
1447.44,1529.00
1448.70,1103.00
1449.95,783.00
1451.20,1534.00
1452.46,1568.00
1453.71,594.00
1454.96,1628.00
1456.21,1236.00
1457.46,266.00
1458.71,1509.00
1459.95,1352.00
1461.20,1676.00
1462.45,1661.00
1463.70,1080.00
1464.94,1433.00
1466.19,1582.00
1467.43,1729.00
1468.68,1092.00
1469.92,1516.00
1471.16,712.00
1472.41,748.00
1473.65,1500.00
1474.89,1910.00
1476.13,1595.00
1477.37,1942.00
1478.61,1533.00
1479.85,1722.00
1481.09,1860.00
1482.33,1432.00
1483.57,1067.00
1484.80,1616.00
1486.04,1140.00
1487.28,1676.00
1488.51,1156.00
1489.75,1874.00
1490.98,1678.00
1492.21,1146.00
1493.45,345.00
1494.68,1742.00
1495.91,1026.00
1497.14,1354.00
1498.37,911.00
1499.61,1028.00
1500.84,1500.00
1502.06,1002.00
1503.29,2088.00
1504.52,1396.00
1505.75,1257.00
1506.98,1511.00
1508.20,2062.00
1509.43,1131.00
1510.66,1718.00
1511.88,816.00
1513.11,1055.00
1514.33,1160.00
1515.55,1864.00
1516.78,1731.00
1518.00,1564.00
1519.22,1304.00
1520.44,1936.00
1521.66,856.00
1522.88,1697.00
1524.10,2093.00
1525.32,2482.00
1526.54,2401.00
1527.76,2922.00
1528.98,2274.00
1530.19,1791.00
1531.41,2324.00
1532.63,3217.00
1533.84,1793.00
1535.06,3027.00
1536.27,2189.00
1537.48,2814.00
1538.70,3201.00
1539.91,2428.00
1541.12,2497.00
1542.33,3442.00
1543.55,2817.00
1544.76,2594.00
1545.97,2671.00
1547.18,3853.00
1548.39,2358.00
1549.59,3383.00
1550.80,3871.00
1552.01,2264.00
1553.22,3240.00
1554.42,2651.00
1555.63,1641.00
1556.84,2676.00
1558.04,2680.00
1559.24,2395.00
1560.45,2162.00
1561.65,2505.00
1562.86,3014.00
1564.06,2616.00
1565.26,3026.00
1566.46,2056.00
1567.66,1652.00
1568.86,1000.00
1570.06,1773.00
1571.26,1247.00
1572.46,1867.00
1573.66,1098.00
1574.86,1510.00
1576.05,3003.00
1577.25,1797.00
1578.45,2297.00
1579.64,1834.00
1580.84,1125.00
1582.03,1426.00
1583.23,1761.00
1584.42,2149.00
1585.61,2515.00
1586.81,1529.00
1588.00,1342.00
1589.19,444.00
1590.38,1869.00
1591.57,1039.00
1592.76,2596.00
1593.95,1243.00
1595.14,1058.00
1596.33,1101.00
1597.52,1134.00
1598.71,741.00
1599.90,1424.00
1601.08,1705.00
1602.27,1772.00
1603.45,534.00
1604.64,1328.00
1605.83,1855.00
1607.01,1035.00
1608.19,1481.00
1609.38,1517.00
1610.56,2852.00
1611.74,1041.00
1612.92,1407.00
1614.11,1786.00
1615.29,2119.00
1616.47,1402.00
1617.65,1965.00
1618.83,1101.00
1620.01,1449.00
1621.18,2201.00
1622.36,2325.00
1623.54,2218.00
1624.72,1129.00
1625.89,1566.00
1627.07,2036.00
1628.25,2049.00
1629.42,1562.00
1630.60,2109.00
1631.77,2686.00
1632.94,1527.00
1634.12,1492.00
1635.29,2021.00
1636.46,2771.00
1637.63,1963.00
1638.80,2049.00
1639.98,1461.00
1641.15,2228.00
1642.32,2271.00
1643.49,1555.00
1644.65,2502.00
1645.82,2259.00
1646.99,2757.00
1648.16,1013.00
1649.33,1260.00
1650.49,2105.00
1651.66,1872.00
1652.82,2194.00
1653.99,1604.00
1655.15,1874.00
1656.32,1571.00
1657.48,1783.00
1658.65,2328.00
1659.81,1717.00
1660.97,1745.00
1662.13,2062.00
1663.29,2267.00
1664.45,1889.00
1665.62,1260.00
1666.78,1434.00
1667.94,1497.00
1669.09,2101.00
1670.25,1708.00
1671.41,2601.00
1672.57,1551.00
1673.73,2164.00
1674.88,1288.00
1676.04,1281.00
1677.20,1734.00
1678.35,1005.00
1679.51,1577.00
1680.66,1428.00
1681.82,579.00
1682.97,1520.00
1684.12,779.00
1685.27,787.00
1686.43,673.00
1687.58,904.00
1688.73,796.00
1689.88,496.00
1691.03,-55.00
1692.18,194.00
1693.33,470.00
1694.48,1183.00
1695.63,229.00
1696.78,1242.00
1697.93,763.00
1699.07,594.00
1700.22,752.00
1701.37,905.00
1702.51,1266.00
1703.66,796.00
1704.80,1000.00
1705.95,1279.00
1707.09,1084.00
1708.24,514.00
1709.38,1079.00
1710.52,846.00
1711.67,1531.00
1712.81,461.00
1713.95,731.00
1715.09,303.00
1716.23,1180.00
1717.37,1081.00
1718.51,277.00
1719.65,923.00
1720.79,1302.00
1721.93,626.00
1723.07,452.00
1724.20,623.00
1725.34,991.00
1726.48,711.00
1727.62,801.00
1728.75,271.00
1729.89,251.00
1731.02,1150.00
1732.16,400.00
1733.29,747.00
1734.43,-9.00
1735.56,1334.00
1736.69,-390.00
1737.82,1473.00
1738.96,-68.00
1740.09,882.00
1741.22,1355.00
1742.35,337.00
1743.48,789.00
1744.61,213.00
1745.74,572.00
1746.87,482.00
1748.00,901.00
1749.13,46.00
1750.25,755.00
1751.38,449.00
1752.51,387.00
1753.64,874.00
1754.76,420.00
1755.89,367.00
1757.01,815.00
1758.14,440.00
1759.26,337.00
1760.39,402.00
1761.51,17.00
1762.63,182.00
1763.76,791.00
1764.88,563.00
1766.00,-214.00
1767.12,458.00
1768.24,104.00
1769.37,583.00
1770.49,191.00
1771.61,250.00
1772.73,961.00
1773.85,-210.00
1774.96,705.00
1776.08,848.00
1777.20,440.00
1778.32,591.00
1779.44,1117.00
1780.55,537.00
1781.67,623.00
1782.78,-20.00
1783.90,855.00
1785.01,280.00
1786.13,753.00
1787.24,346.00
1788.36,432.00
1789.47,1430.00
1790.58,590.00
1791.70,832.00
1792.81,291.00
1793.92,166.00
1795.03,1192.00
1796.14,941.00
1797.26,82.00
1798.37,1177.00
1799.48,1115.00
1800.58,488.00
1801.69,644.00
1802.80,-300.00
1803.91,387.00
1805.02,-176.00
1806.13,764.00
1807.23,496.00
1808.34,-140.00
1809.45,746.00
1810.55,344.00
1811.66,-95.00
1812.76,88.00
1813.87,720.00
1814.97,510.00
1816.08,652.00
1817.18,898.00
1818.28,989.00
1819.39,746.00
1820.49,193.00
1821.59,471.00
1822.69,1154.00
1823.79,156.00
1824.90,-130.00
1826.00,178.00
1827.10,902.00
1828.20,-224.00
1829.30,192.00
1830.39,346.00
1831.49,725.00
1832.59,954.00
1833.69,799.00
1834.79,-15.00
1835.88,471.00
1836.98,794.00
1838.08,209.00
1839.17,224.00
1840.27,371.00
1841.36,423.00
1842.46,47.00
1843.55,529.00
1844.65,145.00
1845.74,658.00
1846.83,514.00
1847.93,255.00
1849.02,-27.00
1850.11,423.00
1851.20,280.00
1852.30,-408.00
1853.39,72.00
1854.48,-171.00
1855.57,498.00
1856.66,506.00
1857.75,980.00
1858.84,-143.00
1859.93,15.00
1861.01,242.00
1862.10,15.00
1863.19,-219.00
1864.28,420.00
1865.37,-155.00
1866.45,-165.00
1867.54,258.00
1868.62,987.00
1869.71,-27.00
1870.79,-64.00
1871.88,28.00
1872.96,759.00
1874.05,1157.00
1875.13,183.00
1876.22,-457.00
1877.30,597.00
1878.38,224.00
1879.46,704.00
1880.55,575.00
1881.63,953.00
1882.71,-224.00
1883.79,763.00
1884.87,344.00
1885.95,-908.00
1887.03,341.00
1888.11,289.00
1889.19,-245.00
1890.27,-175.00
1891.35,564.00
1892.42,12.00
1893.50,364.00
1894.58,-99.00
1895.66,944.00
1896.73,296.00
1897.81,583.00
1898.89,740.00
1899.96,305.00
1901.04,400.00
1902.11,554.00
1903.19,962.00
1904.26,72.00
1905.33,797.00
1906.41,653.00
1907.48,-246.00
1908.55,493.00
1909.63,401.00
1910.70,-148.00
1911.77,229.00
1912.84,656.00
1913.91,-157.00
1914.98,65.00
1916.05,317.00
1917.12,252.00
1918.19,-220.00
1919.26,80.00
1920.33,855.00
1921.40,93.00
1922.47,1129.00
1923.54,372.00
1924.60,-296.00
1925.67,702.00
1926.74,323.00
1927.80,807.00
1928.87,1127.00
1929.94,149.00
1931.00,-223.00
1932.07,989.00
1933.13,793.00
1934.20,355.00
1935.26,11.00
1936.33,-470.00
1937.39,611.00
1938.45,-5.00
1939.52,-49.00
1940.58,-35.00
1941.64,86.00
1942.70,316.00
1943.76,-177.00
1944.83,374.00
1945.89,116.00
1946.95,295.00
1948.01,-218.00
1949.07,-184.00
1950.13,-47.00
1951.19,704.00
1952.25,936.00
1953.30,1030.00
1954.36,382.00
1955.42,248.00
1956.48,307.00
1957.54,149.00
1958.59,-51.00
1959.65,1030.00
1960.71,-77.00
1961.76,409.00
1962.82,610.00
1963.87,16.00
1964.93,-53.00
1965.98,-323.00
1967.04,241.00
1968.09,-58.00
1969.15,478.00
1970.20,422.00
1971.25,480.00
1972.31,265.00
1973.36,-69.00
1974.41,531.00
1975.46,543.00
1976.51,7.00
1977.57,600.00
1978.62,733.00
1979.67,181.00
1980.72,348.00
1981.77,304.00
1982.82,-566.00
1983.87,612.00
1984.92,123.00
1985.96,-196.00
1987.01,246.00
1988.06,458.00
1989.11,249.00
1990.16,261.00
1991.20,183.00
1992.25,444.00
1993.30,-37.00
1994.34,251.00
1995.39,160.00
1996.44,73.00
1997.48,694.00
1998.53,471.00
1999.57,314.00
2000.62,1068.00
2001.66,537.00
2002.70,595.00
2003.75,702.00
2004.79,102.00
2005.83,367.00
2006.88,83.00
2007.92,-92.00
2008.96,77.00
2010.00,604.00
2011.04,81.00
2012.08,-416.00
2013.13,344.00
2014.17,-65.00
2015.21,144.00
2016.25,-420.00
2017.29,184.00
2018.33,216.00
2019.36,528.00
2020.40,268.00
2021.44,478.00
2022.48,84.00
2023.52,200.00
2024.56,149.00
2025.59,656.00
2026.63,137.00
2027.67,853.00
2028.70,264.00
2029.74,-175.00
2030.78,13.00
2031.81,-71.00
2032.85,-346.00
2033.88,336.00
2034.92,299.00
2035.95,568.00
2036.98,909.00
2038.02,156.00
2039.05,-155.00
2040.08,653.00
2041.12,1116.00
2042.15,792.00
2043.18,396.00
2044.21,788.00
2045.25,8.00
2046.28,522.00
2047.31,763.00
2048.34,-19.00
2049.37,-223.00
2050.40,167.00
2051.43,562.00
2052.46,286.00
2053.49,-61.00
2054.52,822.00
2055.55,237.00
2056.58,1040.00
2057.61,263.00
2058.63,31.00
2059.66,-298.00
2060.69,594.00
2061.72,-538.00
2062.74,-586.00
2063.77,432.00
2064.80,240.00
2065.82,862.00
2066.85,20.00
2067.87,-17.00
2068.90,380.00
2069.92,10.00
2070.95,118.00
2071.97,43.00
2073.00,849.00
2074.02,-157.00
2075.05,-316.00
2076.07,384.00
2077.09,-79.00
2078.12,328.00
2079.14,140.00
2080.16,900.00
2081.18,85.00
2082.20,1023.00
2083.23,-568.00
2084.25,-243.00
2085.27,-298.00
2086.29,166.00
2087.31,466.00
2088.33,-856.00
2089.35,417.00
2090.37,422.00
2091.39,238.00
2092.41,262.00
2093.43,465.00
2094.44,218.00
2095.46,733.00
2096.48,-169.00
2097.50,232.00
2098.52,784.00
2099.53,400.00
2100.55,-452.00
2101.57,307.00
2102.58,87.00
2103.60,623.00
2104.62,-66.00
2105.63,331.00
2106.65,348.00
2107.66,-287.00
2108.68,594.00
2109.69,-447.00
2110.71,33.00
2111.72,498.00
2112.73,-87.00
2113.75,108.00
2114.76,517.00
2115.77,193.00
2116.79,-1036.00
2117.80,-290.00
2118.81,232.00
2119.82,-427.00
2120.84,365.00
2121.85,75.00
2122.86,-65.00
2123.87,109.00
2124.88,66.00
2125.89,-424.00
2126.90,395.00
2127.91,-487.00
2128.92,881.00
2129.93,-264.00
2130.94,-62.00
2131.95,131.00
2132.96,565.00
2133.97,739.00
2134.97,-380.00
2135.98,628.00
2136.99,231.00
2138.00,-126.00
2139.01,148.00
2140.01,-204.00
2141.02,-879.00
2142.03,-81.00
2143.03,310.00
2144.04,147.00
2145.04,530.00
2146.05,404.00
2147.06,61.00
2148.06,-556.00
2149.07,-22.00
2150.07,-5.00
2151.07,-494.00
2152.08,173.00
2153.08,129.00
2154.09,104.00
2155.09,-195.00
2156.09,-829.00
2157.10,-91.00
2158.10,-55.00
2159.10,-6.00
2160.10,4.00
2161.11,-180.00
2162.11,487.00
2163.11,-192.00
2164.11,-113.00
2165.11,428.00
2166.11,-106.00
2167.11,267.00
2168.11,-198.00
2169.11,261.00
2170.11,-188.00
2171.11,650.00
2172.11,49.00
2173.11,-121.00
2174.11,66.00
2175.11,88.00
2176.11,-970.00
2177.11,98.00
2178.10,448.00
2179.10,-402.00
2180.10,-23.00
2181.10,-320.00
2182.09,-60.00
2183.09,192.00
2184.09,-59.00
2185.08,-68.00
2186.08,233.00
2187.08,-172.00
2188.07,-120.00
2189.07,-17.00
2190.06,635.00
2191.06,-149.00
2192.05,571.00
2193.05,-119.00
2194.04,-518.00
2195.04,252.00
2196.03,-227.00
2197.02,387.00
2198.02,58.00
2199.01,-417.00
2200.00,901.00
2201.00,265.00
2201.99,-643.00
2202.98,-732.00
2203.97,-307.00
2204.97,125.00
2205.96,89.00
2206.95,-276.00
2207.94,162.00
2208.93,-17.00
2209.92,-1.00
2210.91,-619.00
2211.90,89.00
2212.89,490.00
2213.88,-371.00
2214.87,414.00
2215.86,-428.00
2216.85,-43.00
2217.84,-455.00
2218.83,1120.00
2219.82,-302.00
2220.81,526.00
2221.80,-24.00
2222.78,114.00
2223.77,335.00
2224.76,348.00
2225.75,56.00
2226.73,-646.00
2227.72,-248.00
2228.71,229.00
2229.70,140.00
2230.68,-387.00
2231.67,-42.00
2232.65,-200.00
2233.64,60.00
2234.63,-321.00
2235.61,18.00
2236.60,-373.00
2237.58,-176.00
2238.57,-119.00
2239.55,350.00
2240.53,-55.00
2241.52,7.00
2242.50,-177.00
2243.49,-195.00
2244.47,465.00
2245.45,82.00
2246.44,-310.00
2247.42,260.00
2248.40,-35.00
2249.38,290.00
2250.37,-242.00
2251.35,14.00
2252.33,-132.00
2253.31,-197.00
2254.29,219.00
2255.28,135.00
2256.26,-175.00
2257.24,-313.00
2258.22,303.00
2259.20,168.00
2260.18,-71.00
2261.16,-241.00
2262.14,420.00
2263.12,-312.00
2264.10,300.00
2265.08,-172.00
2266.06,578.00
2267.04,-448.00
2268.01,-194.00
2268.99,-197.00
2269.97,-41.00
2270.95,78.00
2271.93,2.00
2272.90,315.00
2273.88,393.00
2274.86,426.00
2275.84,169.00
2276.81,550.00
2277.79,-298.00
2278.77,-682.00
2279.74,-358.00
2280.72,135.00
2281.70,84.00
2282.67,43.00
2283.65,-270.00
2284.62,-16.00
2285.60,121.00
2286.57,115.00
2287.55,96.00
2288.52,683.00
2289.50,9.00
2290.47,524.00
2291.45,82.00
2292.42,47.00
2293.39,100.00
2294.37,35.00
2295.34,-504.00
2296.31,116.00
2297.29,-472.00
2298.26,-793.00
2299.23,63.00
2300.21,399.00
2301.18,600.00
2302.15,-191.00
2303.12,296.00
2304.09,-40.00
2305.07,420.00
2306.04,249.00
2307.01,393.00
2307.98,-388.00
2308.95,-213.00
2309.92,-18.00
2310.89,-81.00
2311.86,179.00
2312.83,134.00
2313.80,148.00
2314.77,406.00
2315.74,204.00
2316.71,-258.00
2317.68,69.00
2318.65,35.00
2319.62,-202.00
2320.59,-241.00
2321.56,-59.00
2322.53,327.00
2323.49,300.00
2324.46,-231.00
2325.43,295.00
2326.40,436.00
2327.36,-34.00
2328.33,-313.00
2329.30,-336.00
2330.27,-109.00
2331.23,-535.00
2332.20,-65.00
2333.17,629.00
2334.13,-30.00
2335.10,-56.00
2336.07,-432.00
2337.03,205.00
2338.00,111.00
2338.96,-349.00
2339.93,-388.00
2340.89,548.00
2341.86,-123.00
2342.82,-108.00
2343.79,-156.00
2344.75,-448.00
2345.72,86.00
2346.68,-690.00
2347.64,-43.00
2348.61,-414.00
2349.57,-29.00
2350.54,221.00
2351.50,217.00
2352.46,-102.00
2353.43,105.00
2354.39,24.00
2355.35,-386.00
2356.31,-117.00
2357.28,-176.00
2358.24,-15.00
2359.20,34.00
2360.16,383.00
2361.12,104.00
2362.09,186.00
2363.05,47.00
2364.01,-417.00
2364.97,198.00
2365.93,-173.00
2366.89,121.00
2367.85,-737.00
2368.81,-44.00
2369.77,-223.00
2370.73,33.00
2371.69,-534.00
2372.65,-405.00
2373.61,-148.00
2374.57,391.00
2375.53,45.00
2376.49,-134.00
2377.45,191.00
2378.41,-812.00
2379.37,-29.00
2380.33,-82.00
2381.29,-366.00
2382.24,-95.00
2383.20,109.00
2384.16,-84.00
2385.12,-687.00
2386.08,610.00
2387.03,-115.00
2387.99,167.00
2388.95,-137.00
2389.91,-88.00
2390.86,290.00
2391.82,-140.00
2392.78,-122.00
2393.73,244.00
2394.69,-265.00
2395.65,418.00
2396.60,86.00
2397.56,-76.00
2398.51,-358.00
2399.47,-77.00
2400.43,55.00
2401.38,-486.00
2402.34,-515.00
2403.29,-456.00
2404.25,-399.00
2405.20,193.00
2406.16,240.00
2407.11,-373.00
2408.07,129.00
2409.02,277.00
2409.97,-79.00
2410.93,9.00
2411.88,380.00
2412.84,-373.00
2413.79,18.00
2414.74,90.00
2415.70,-1034.00
2416.65,-69.00
2417.60,-457.00
2418.55,197.00
2419.51,-401.00
2420.46,105.00
2421.41,322.00
2422.37,16.00
2423.32,-604.00
2424.27,178.00
2425.22,396.00
2426.17,16.00
2427.12,297.00
2428.08,-33.00
2429.03,72.00
2429.98,-183.00
2430.93,-662.00
2431.88,-242.00
2432.83,65.00
2433.78,-138.00
2434.73,-98.00
2435.68,33.00
2436.63,96.00
2437.58,-250.00
2438.53,355.00
2439.48,285.00
2440.43,485.00
2441.38,-239.00
2442.33,-664.00
2443.28,-756.00
2444.23,-214.00
2445.18,-201.00
2446.13,-581.00
2447.08,-509.00
2448.03,-450.00
2448.98,308.00
2449.92,-553.00
2450.87,-159.00
2451.82,-94.00
2452.77,-444.00
2453.72,-61.00
2454.67,-203.00
2455.61,-83.00
2456.56,-811.00
2457.51,-209.00
2458.46,577.00
2459.40,-4.00
2460.35,43.00
2461.30,244.00
2462.24,35.00
2463.19,1.00
2464.14,185.00
2465.08,109.00
2466.03,-47.00
2466.98,-157.00
2467.92,-536.00
2468.87,-350.00
2469.81,-326.00
2470.76,62.00
2471.71,-17.00
2472.65,213.00
2473.60,704.00
2474.54,-208.00
2475.49,150.00
2476.43,-232.00
2477.38,-191.00
2478.32,388.00
2479.27,68.00
2480.21,381.00
2481.16,309.00
2482.10,134.00
2483.05,252.00
2483.99,303.00
2484.93,-218.00
2485.88,-431.00
2486.82,18.00
2487.76,374.00
2488.71,230.00
2489.65,-97.00
2490.60,498.00
2491.54,-601.00
2492.48,190.00
2493.42,-485.00
2494.37,-683.00
2495.31,96.00
2496.25,-68.00
2497.20,-308.00
2498.14,404.00
2499.08,63.00
2500.02,322.00
2500.96,-280.00
2501.91,-601.00
2502.85,540.00
2503.79,470.00
2504.73,-15.00
2505.67,260.00
2506.62,-570.00
2507.56,-85.00
2508.50,141.00
2509.44,488.00
2510.38,-346.00
2511.32,15.00
2512.26,31.00
2513.20,652.00
2514.14,-66.00
2515.08,-306.00
2516.02,-394.00
2516.96,36.00
2517.91,441.00
2518.85,-66.00
2519.79,-102.00
2520.73,-209.00
2521.66,-748.00
2522.60,261.00
2523.54,-558.00
2524.48,-51.00
2525.42,-486.00
2526.36,-37.00
2527.30,-123.00
2528.24,-306.00
2529.18,234.00
2530.12,579.00
2531.06,-373.00
2532.00,-360.00
2532.93,-133.00
2533.87,27.00
2534.81,108.00
2535.75,-40.00
2536.69,554.00
2537.63,-626.00
2538.56,-6.00
2539.50,-402.00
2540.44,278.00
2541.38,-474.00
2542.32,-701.00
2543.25,565.00
2544.19,798.00
2545.13,10.00
2546.07,200.00
2547.00,378.00
2547.94,158.00
2548.88,160.00
2549.81,231.00
2550.75,-421.00
2551.69,-161.00
2552.62,-314.00
2553.56,417.00
2554.50,231.00
2555.43,103.00
2556.37,591.00
2557.30,-16.00
2558.24,-658.00
2559.18,195.00
2560.11,-4.00
2561.05,-81.00
2561.98,-81.00
2562.92,-643.00
2563.86,223.00
2564.79,428.00
2565.73,-79.00
2566.66,246.00
2567.60,23.00
2568.53,-349.00
2569.47,-776.00
2570.40,64.00
2571.34,28.00
2572.27,-165.00
2573.21,-350.00
2574.14,240.00
2575.07,-235.00
2576.01,-496.00
2576.94,-256.00
2577.88,128.00
2578.81,-518.00
2579.75,33.00
2580.68,445.00
2581.61,392.00
2582.55,-267.00
2583.48,-638.00
2584.42,-427.00
2585.35,-380.00
2586.28,-348.00
2587.22,153.00
2588.15,-495.00
2589.08,-207.00
2590.02,145.00
2590.95,926.00
2591.88,443.00
2592.81,-114.00
2593.75,-412.00
2594.68,159.00
2595.61,482.00
2596.55,-676.00
2597.48,-239.00
2598.41,-418.00
2599.34,-492.00
2600.28,-21.00
2601.21,608.00
2602.14,-540.00
2603.07,-38.00
2604.00,43.00
2604.94,-480.00
2605.87,546.00
2606.80,224.00
2607.73,-328.00
2608.66,-6.00
2609.59,-214.00
2610.53,-591.00
2611.46,-368.00
2612.39,659.00
2613.32,-664.00
2614.25,-88.00
2615.18,-117.00
2616.11,22.00
2617.04,-101.00
2617.97,-31.00
2618.91,-313.00
2619.84,107.00
2620.77,639.00
2621.70,192.00
2622.63,-170.00
2623.56,-384.00
2624.49,-582.00
2625.42,186.00
2626.35,264.00
2627.28,-119.00
2628.21,245.00
2629.14,76.00
2630.07,-408.00
2631.00,247.00
2631.93,-230.00
2632.86,320.00
2633.79,-67.00
2634.72,183.00
2635.65,-381.00
2636.58,-387.00
2637.51,-158.00
2638.44,181.00
2639.37,-387.00
2640.30,-6.00
2641.23,199.00
2642.15,-409.00
2643.08,-33.00
2644.01,-280.00
2644.94,440.00
2645.87,386.00
2646.80,625.00
2647.73,-755.00
2648.66,-384.00
2649.59,133.00
2650.51,-87.00
2651.44,-401.00
2652.37,-136.00
2653.30,62.00
2654.23,-616.00
2655.16,-297.00
2656.08,365.00
2657.01,-171.00
2657.94,-309.00
2658.87,-374.00
2659.80,0.00
2660.72,-225.00
2661.65,-282.00
2662.58,-468.00
2663.51,-145.00
2664.44,-211.00
2665.36,620.00
2666.29,-407.00
2667.22,84.00
2668.15,149.00
2669.07,193.00
2670.00,-641.00
2670.93,-398.00
2671.86,637.00
2672.78,-223.00
2673.71,-253.00
2674.64,0.00
2675.56,0.00
2676.49,0.00
2677.42,0.00
2678.35,0.00
